EEG_CH1_RAW	EEG_CH1_BP_0p5_20
-22143	5.3743496
-49457	20.182785
-63983	44.2205
-47569	70.03015
-20338	89.785446
-21954	103.60916
-49173	115.72219
-63807	126.2131
-47658	130.59865
-21391	126.400986
-23743	120.18118
-50650	122.17935
-64770	136.83647
-48161	161.01292
-22801	190.12823
-25962	224.80502
-51595	266.2336
-65622	309.58487
-48803	343.9299
-24152	361.06873
-28002	363.39697
-51799	359.07236
-65265	355.4205
-48328	355.64343
-21316	363.5866
-23977	389.14105
-51377	441.23312
-64807	517.8329
-47896	605.7234
-20867	688.2815
-23840	756.0067
-51281	804.71515
-64480	829.93915
-47529	828.7631
-38578	810.66583
-17471	786.8546
-32819	781.24615
-58205	814.4857
-59182	893.79315
-38595	1013.6215
-18499	1159.6122
-33187	1316.8485
-58271	1465.1086
-59081	1579.0736
-38419	1638.5471
-17567	1637.992
-32954	1595.4509
-58189	1540.8477
-58901	1504.9781
-38252	1515.5309
-17578	1593.1335
-33042	1751.1652
-58199	1982.2677
-58739	2253.9795
-38069	2518.9045
-17584	2729.3167
-33114	2855.455
-58166	2885.7605
-58595	2827.3286
-37947	2709.8743
-17595	2583.7058
-33265	2514.3784
-58243	2557.7808
-58442	2740.437
-37731	3053.9773
-17407	3457.5725
-33352	3891.346
-58319	4280.6523
-58351	4549.849
-37603	4645.9795
-17430	4558.2295
-33482	4330.693
-58414	4046.9429
-58299	3808.2695
-37507	3713.6023
-17381	3837.2927
-33589	4213.1694
-58506	4811.8267
-58277	5537.1055
-37372	6247.569
-17382	6791.1304
-33712	7048.4053
-58581	6957.446
-58221	6532.8184
-37247	5876.5625
-17329	5168.1943
-33844	4636.3696
-58734	4499.0386
-58188	4903.5913
-37096	5883.495
-17281	7333.4404
-33935	9012.987
-58853	10563.132
-58139	11554.793
-36859	11565.323
-17325	10260.676
-34167	7469.6157
-59041	3217.838
-58143	-2266.186
-36774	-8572.407
-17269	-15163.266
-34252	-21449.152
-59109	-26888.957
-58054	-31077.5
-36596	-33800.15
-17236	-35053.582
-34324	-35027.375
-59259	-34068.062
-58036	-32613.79
-36471	-31108.795
-17320	-29923.023
-34590	-29289.299
-59398	-29285.822
-57932	-29845.469
-36309	-30784.176
-17224	-31849.236
-34651	-32774.004
-59415	-33344.3
-57801	-33443.613
-36172	-33065.69
-17238	-32302.566
-34772	-31310.22
-59524	-30277.82
-57776	-29388.658
-36044	-28777.795
-17346	-28504.021
-34976	-28538.63
-59542	-28788.27
-57642	-29126.238
-35907	-29420.486
-17364	-29560.416
-35106	-29474.209
-59585	-29150.107
-57502	-28638.115
-35826	-28030.041
-17468	-27431.82
-35267	-26932.754
-59599	-26595.088
-57358	-26446.508
-35686	-26473.326
-17402	-26623.842
-35346	-26817.625
-59546	-26974.605
-57217	-27037.191
-35574	-26977.705
-17497	-26798.404
-35469	-26522.477
-59606	-26194.922
-57124	-25874.246
-35446	-25614.238
-17450	-25448.7
-35584	-25380.059
-59636	-25390.105
-56997	-25450.328
-35209	-25526.076
-17321	-25581.78
-35637	-25583.816
-59706	-25516.277
-56977	-25386.951
-35072	-25219.709
-17253	-25043.87
-35773	-24881.352
-59816	-24750.662
-56824	-24666.98
-34852	-24635.527
-17233	-24648.008
-35889	-24680.518
-59926	-24709.008
-56874	-24718.947
-34800	-24704.127
-17142	-24663.848
-35947	-24596.977
-60073	-24510.52
-56853	-24421.186
-34589	-24346.916
-17084	-24299.127
-35999	-24275.36
-60227	-24269.555
-56784	-24278.041
-34269	-24296.266
-16895	-24316.488
-36036	-24324.547
-60317	-24311.947
-56717	-24281.494
-34012	-24241.717
-16721	-24200.895
-36089	-24159.936
-60533	-24121.525
-56746	-24093.518
-33841	-24082.879
-16689	-24090.533
-36226	-24106.49
-60697	-24121.514
-56751	-24133.184
-33622	-24141.754
-16601	-24146.146
-36321	-24139.127
-60916	-24118.125
-56774	-24089.672
-33464	-24063.246
-16644	-24045.059
-36436	-24034.848
-61079	-24028.94
-56750	-24027.549
-33282	-24031.555
-16552	-24043.385
-36589	-24061.207
-61281	-24080.275
-56802	-24095.758
-33214	-24105.309
-16725	-24110.525
-36789	-24111.12
-61347	-24105.854
-56684	-24094.795
-32981	-24080.578
-16638	-24069.098
-36913	-24062.414
-61466	-24059.635
-56669	-24059.816
-32891	-24062.867
-16761	-24071.04
-37082	-24082.64
-61557	-24093.303
-56577	-24100.707
-32754	-24104.363
-16887	-24107.172
-37264	-24109.762
-61691	-24110.836
-56546	-24109.463
-32634	-24106.95
-16876	-24106.89
-37365	-24109.62
-61701	-24112.66
-56517	-24113.303
-32535	-24111.125
-16898	-24110.586
-37501	-24104.86
-61798	-24096.617
-56417	-24088.594
-32438	-24080.867
-16939	-24074.035
-37659	-24065.768
-61897	-24059.19
-56421	-24056.906
-32085	-24057.967
-16406	-24060.951
-37527	-24061.01
-61988	-24059.357
-56297	-24057.127
-31982	-24052.818
-16824	-24045.734
-37772	-24032.879
-62097	-24017.848
-56260	-24004.268
-31845	-23992.697
-16769	-23983.648
-37934	-23974.23
-62230	-23967.15
-56246	-23964.307
-31809	-23964.285
-16982	-23965.676
-38155	-23964.209
-62183	-23962.158
-56002	-23961.68
-31747	-23962.285
-17301	-23963.807
-38426	-23963.354
-62324	-23963.871
-55994	-23967.55
-31503	-23973.178
-16987	-23979.178
-38501	-23980.832
-62373	-23979.527
-55880	-23976.373
-31322	-23969.934
-16996	-23959.445
-38592	-23941.922
-62466	-23921.19
-55871	-23900.994
-31191	-23882.219
-16952	-23865.818
-38701	-23849.54
-62561	-23836.814
-55749	-23830.07
-30951	-23828.225
-16906	-23829.922
-38811	-23830.77
-62619	-23832.615
-55683	-23836.904
-30801	-23842.38
-17010	-23848.072
-38943	-23850.488
-62721	-23852.408
-55653	-23856.166
-30683	-23860.977
-17016	-23866.06
-39080	-23868.0
-62768	-23869.39
-55546	-23872.46
-30506	-23876.678
-17077	-23881.648
-39261	-23884.574
-62810	-23888.799
-55439	-23896.965
-30406	-23908.494
-17252	-23922.379
-39385	-23934.602
-62871	-23946.783
-55328	-23959.758
-30263	-23971.254
-17339	-23979.299
-39554	-23980.09
-62807	-23976.504
-55211	-23971.576
-30217	-23966.121
-17416	-23961.398
-39711	-23956.299
-62829	-23955.365
-55120	-23961.738
-30158	-23974.549
-17591	-23991.928
-39849	-24008.799
-62773	-24025.416
-54943	-24041.326
-30067	-24053.512
-17725	-24059.842
-40002	-24057.219
-62727	-24049.615
-54835	-24041.287
-30007	-24034.13
-17779	-24030.012
-40107	-24027.947
-62619	-24031.764
-54623	-24042.979
-29899	-24058.795
-17939	-24075.326
-40242	-24085.959
-62535	-24090.121
-54484	-24087.234
-29833	-24075.244
-18006	-24053.959
-40377	-24022.633
-62467	-23987.848
-54339	-23955.916
-29737	-23930.229
-18074	-23913.416
-40531	-23904.414
-62524	-23906.365
-54221	-23919.688
-29618	-23940.582
-18161	-23964.523
-40671	-23984.857
-62466	-24001.605
-54096	-24014.98
-29417	-24023.898
-18091	-24028.73
-40711	-24028.713
-62470	-24029.451
-54017	-24035.186
-29322	-24046.502
-18158	-24062.7
-40835	-24079.629
-62491	-24098.0
-53902	-24116.69
-29124	-24131.75
-18162	-24139.896
-40962	-24136.955
-62593	-24126.027
-53833	-24110.578
-28931	-24092.266
-18041	-24073.363
-41082	-24053.936
-62658	-24039.373
-53743	-24032.738
-28714	-24032.992
-18054	-24037.771
-41212	-24041.951
-62789	-24045.959
-53652	-24049.367
-28558	-24049.57
-18090	-24045.072
-41277	-24033.578
-62842	-24019.69
-53646	-24007.441
-28137	-23998.143
-17597	-23992.703
-41180	-23989.27
-62968	-23990.904
-53552	-23998.633
-28012	-24009.766
-17944	-24021.23
-41416	-24028.318
-63097	-24032.537
-53463	-24035.064
-27864	-24035.059
-18031	-24032.299
-41619	-24025.56
-63181	-24019.488
-53521	-24017.383
-28514	-24018.988
-19706	-24023.338
-42296	-24027.729
-63336	-24034.209
-53474	-24043.346
-28012	-24052.664
-18622	-24059.916
-42181	-24061.896
-63248	-24061.557
-53301	-24061.145
-27800	-24060.31
-18561	-24058.889
-42262	-24055.42
-63234	-24053.797
-53183	-24056.299
-27654	-24061.83
-18614	-24068.896
-42440	-24074.338
-63237	-24080.475
-53070	-24088.227
-27606	-24095.643
-18831	-24100.896
-42531	-24101.34
-63117	-24099.994
-52907	-24098.79
-27506	-24096.875
-18970	-24093.488
-42684	-24086.865
-63079	-24080.57
-52773	-24076.729
-27450	-24074.312
-19016	-24072.117
-42787	-24067.691
-62997	-24063.79
-52579	-24061.719
-27312	-24059.783
-19114	-24056.48
-42871	-24049.53
-62877	-24042.334
-52437	-24037.154
-27229	-24033.451
-19190	-24030.775
-42964	-24027.617
-62780	-24027.488
-52293	-24031.838
-27126	-24038.693
-19219	-24045.545
-43125	-24048.623
-62756	-24049.662
-52184	-24048.893
-27071	-24044.186
-19396	-24034.354
-43247	-24018.213
-62712	-24000.684
-52021	-23985.424
-26881	-23973.234
-19387	-23964.486
-43353	-23958.012
-62679	-23956.975
-51971	-23961.736
-26777	-23969.037
-19356	-23975.225
-43427	-23976.04
-62632	-23973.16
-51766	-23967.514
-26549	-23958.285
-19392	-23945.73
-43486	-23929.996
-62629	-23916.63
-51671	-23909.096
-26394	-23907.201
-19433	-23909.531
-43647	-23912.85
-62641	-23918.29
-51541	-23924.838
-26231	-23928.844
-19512	-23927.297
-43787	-23917.623
-62707	-23903.559
-51501	-23888.021
-26198	-23871.588
-19675	-23854.672
-43904	-23836.66
-62701	-23821.135
-51426	-23808.928
-26146	-23797.438
-19804	-23783.846
-44042	-23765.566
-62721	-23746.277
-51301	-23729.457
-25978	-23717.44
-19829	-23713.783
-44110	-23721.951
-62606	-23749.836
-51181	-23801.453
-25804	-23875.34
-19867	-23966.479
-44315	-24066.342
-62576	-24168.912
-51068	-24265.012
-26026	-24343.0
-20357	-24393.252
-44450	-24409.377
-62411	-24394.08
-50924	-24352.438
-25866	-24290.494
-20297	-24216.666
-44545	-24139.99
-62276	-24073.477
-50803	-24025.652
-26107	-23998.814
-20823	-23991.607
-44679	-23999.266
-62062	-24019.395
-50639	-24046.385
-26179	-24072.258
-20981	-24090.527
-44769	-24096.994
-61966	-24094.629
-50523	-24086.445
-26147	-24074.287
-21232	-24060.559
-44983	-24047.309
-61858	-24040.146
-50377	-24040.895
-26156	-24047.232
-21303	-24055.602
-45049	-24061.918
-61716	-24066.768
-50215	-24069.152
-25977	-24066.568
-21312	-24057.691
-45137	-24042.299
-61599	-24025.533
-50087	-24010.453
-25824	-23997.473
-21266	-23986.36
-45220	-23976.168
-61498	-23970.014
-49966	-23968.121
-25789	-23968.152
-21386	-23967.576
-45349	-23964.352
-61482	-23961.445
-49865	-23959.951
-25712	-23958.826
-21473	-23957.035
-45472	-23953.562
-61455	-23951.918
-49772	-23952.91
-25536	-23954.82
-21539	-23955.531
-45566	-23953.043
-61414	-23950.111
-49672	-23947.17
-25509	-23942.68
-21676	-23935.102
-45682	-23923.312
-61494	-23910.934
-49729	-23899.236
-25546	-23887.38
-21802	-23874.307
-45918	-23859.207
-61543	-23845.912
-49534	-23835.783
-25341	-23827.875
-21873	-23820.857
-46017	-23813.56
-61481	-23809.162
-49411	-23808.19
-25131	-23808.865
-21879	-23809.06
-46068	-23807.215
-61493	-23806.574
-49329	-23808.133
-25081	-23811.107
-22004	-23814.557
-46172	-23818.154
-61418	-23825.742
-49159	-23838.246
-24967	-23853.732
-22111	-23869.338
-46252	-23882.22
-61356	-23893.611
-49068	-23902.293
-25019	-23905.291
-22381	-23900.232
-46419	-23886.586
-61282	-23869.29
-49014	-23851.48
-25112	-23834.674
-22699	-23820.148
-46543	-23809.691
-61217	-23808.145
-48833	-23816.438
-25038	-23831.96
-22806	-23850.777
-46634	-23869.256
-61084	-23887.701
-48711	-23904.105
-25026	-23915.326
-23012	-23919.186
-46743	-23915.814
-60921	-23910.064
-48587	-23905.246
-25974	-23902.172
-25486	-23901.047
-46842	-23903.154
-60684	-23911.857
-48425	-23926.85
-25410	-23944.945
-23816	-23962.338
-46966	-23976.52
-60549	-23989.156
-48329	-23999.793
-25321	-24006.738
-23750	-24008.996
-46941	-24007.248
-60385	-24006.262
-48219	-24007.572
-25350	-24010.299
-23930	-24012.854
-46982	-24014.21
-60112	-24016.559
-48068	-24018.742
-25376	-24017.814
-24074	-24011.01
-47009	-23997.482
-59852	-23980.773
-47874	-23962.055
-25304	-23941.266
-24084	-23918.543
-47080	-23895.402
-59586	-23876.92
-47657	-23864.387
-25803	-23856.76
-24871	-23852.344
-46982	-23850.361
-59035	-23853.092
-47431	-23859.22
-25273	-23865.854
-24307	-23870.064
-46978	-23870.588
-58786	-23870.32
-47234	-23869.096
-25101	-23865.7
-24284	-23859.047
-47029	-23849.773
-58681	-23842.316
-47072	-23837.611
-25126	-23835.123
-24549	-23833.912
-47081	-23834.39
-58619	-23840.258
-46847	-23851.453
-25537	-23866.008
-26036	-23881.336
-47059	-23896.758
-58451	-23914.268
-46755	-23932.215
-25051	-23947.523
-24812	-23956.969
-47302	-23959.188
-58600	-23956.91
-46778	-23949.896
-24727	-23937.47
-24617	-23919.346
-47377	-23897.56
-58841	-23877.904
-46838	-23862.766
-24255	-23852.834
-24258	-23847.5
-47456	-23846.61
-58921	-23852.398
-46715	-23862.578
-24382	-23873.03
-24698	-23879.033
-47632	-23878.26
-58950	-23873.006
-46718	-23863.63
-24378	-23851.014
-24891	-23836.87
-47867	-23825.422
-58988	-23824.133
-46635	-23835.854
-24327	-23860.209
-24993	-23893.8
-47856	-23932.56
-58939	-23973.725
-46552	-24010.145
-24425	-24033.928
-25443	-24038.475
-47935	-24022.377
-58851	-23991.178
-46408	-23950.812
-24369	-23909.125
-25391	-23874.988
-48067	-23858.969
-58767	-23872.455
-46352	-23919.188
-24263	-23996.676
-25484	-24096.494
-48141	-24207.676
-58643	-24319.477
-46174	-24417.06
-24613	-24486.387
-26364	-24516.648
-48066	-24505.018
-58467	-24457.338
-46046	-24381.594
-24957	-24288.492
-26424	-24190.188
-48344	-24100.258
-58516	-24032.379
-46068	-23992.344
-24376	-23979.98
-26034	-23989.35
-48357	-24012.92
-58338	-24044.24
-45917	-24073.4
-24280	-24091.59
-26169	-24092.24
-48422	-24074.902
-58197	-24045.66
-45789	-24009.87
-24216	-23973.508
-26201	-23941.488
-48384	-23919.312
-58022	-23912.908
-45667	-23921.781
-24131	-23942.037
-26257	-23966.559
-48432	-23989.473
-57936	-24007.826
-45565	-24016.084
-24002	-24009.846
-26269	-23985.783
-48454	-23944.896
-57819	-23892.928
-45451	-23833.305
-23885	-23769.805
-26353	-23705.232
-48462	-23644.592
-57677	-23595.213
-45299	-23559.977
-23734	-23540.357
-26440	-23535.486
-48578	-23545.63
-57663	-23572.527
-45240	-23612.975
-23762	-23662.154
-26609	-23713.045
-48644	-23760.742
-57619	-23803.16
-45135	-23835.346
-24454	-23853.09
-28117	-23852.79
-48749	-23835.748
-57565	-23807.275
-45012	-23770.512
-23759	-23728.965
-27012	-23684.895
-48844	-23642.547
-57548	-23607.812
-44967	-23581.393
-23642	-23562.527
-27011	-23548.104
-48958	-23537.318
-57491	-23531.906
-44912	-23530.459
-23772	-23531.906
-27275	-23534.611
-48994	-23540.127
-57391	-23552.463
-44832	-23571.525
-23771	-23596.12
-27343	-23622.86
-49003	-23650.266
-57259	-23678.758
-44730	-23704.992
-23862	-23725.906
-27553	-23738.248
-49051	-23742.91
-57106	-23744.354
-44642	-23744.29
-23889	-23744.73
-27740	-23746.041
-49064	-23750.791
-56959	-23762.41
-44535	-23779.107
-23897	-23797.748
-27917	-23813.002
-49141	-23822.545
-56798	-23826.83
-44407	-23823.97
-23897	-23813.666
-28136	-23796.059
-49177	-23775.652
-56649	-23759.89
-44376	-23752.373
-24317	-23755.738
-28558	-23769.746
-49124	-23795.318
-56399	-23833.213
-44250	-23878.83
-24815	-23926.305
-29487	-23968.414
-49114	-24001.646
-56219	-24024.76
-44181	-24035.59
-24711	-24033.117
-29023	-24016.67
-49112	-23989.758
-55967	-23958.398
-44045	-23925.113
-24410	-23892.254
-28983	-23860.13
-49122	-23831.379
-55814	-23809.729
-44002	-23794.43
-24399	-23784.367
-29124	-23776.465
-49096	-23770.531
-55621	-23767.979
-43955	-23766.348
-24513	-23763.578
-29369	-23756.184
-49077	-23744.4
-55433	-23730.705
-43799	-23714.527
-24487	-23696.389
-29364	-23675.764
-49119	-23655.639
-55340	-23640.74
-43742	-23631.316
-24352	-23627.412
-29455	-23625.979
-49102	-23626.074
-55176	-23627.578
-43630	-23626.527
-24340	-23619.809
-29566	-23603.523
-49106	-23578.86
-55049	-23550.844
-43548	-23522.588
-24357	-23499.426
-29654	-23485.086
-49153	-23486.027
-54964	-23508.605
-43462	-23552.412
-24369	-23614.635
-29863	-23687.11
-49131	-23762.748
-54761	-23834.701
-43308	-23892.592
-24544	-23928.613
-30172	-23936.129
-49052	-23915.893
-54625	-23873.67
-43292	-23815.617
-24922	-23750.404
-30367	-23685.475
-49125	-23630.64
-54492	-23594.814
-43196	-23579.723
-24382	-23584.459
-30324	-23602.764
-49299	-23630.004
-54564	-23661.96
-43287	-23690.955
-24486	-23711.93
-30535	-23719.957
-49352	-23716.664
-54483	-23707.004
-43201	-23693.385
-24574	-23679.576
-30620	-23666.912
-49312	-23659.342
-54301	-23660.285
-43063	-23667.654
-24597	-23679.018
-30794	-23689.334
-49269	-23697.627
-54173	-23704.54
-42960	-23707.79
-24521	-23707.225
-30823	-23701.436
-49248	-23693.635
-53984	-23687.902
-42881	-23684.023
-24969	-23682.186
-31169	-23680.164
-49284	-23679.346
-53926	-23681.893
-42833	-23686.523
-24714	-23693.482
-31209	-23701.617
-49287	-23714.197
-53771	-23735.244
-42708	-23764.367
-24562	-23801.2
-31216	-23841.885
-49327	-23885.186
-53680	-23929.436
-42686	-23968.371
-24430	-23996.986
-30903	-24009.17
-49210	-24004.31
-53491	-23984.662
-42510	-23951.041
-24821	-23907.168
-31551	-23856.033
-49358	-23804.926
-53507	-23761.469
-42542	-23728.197
-24573	-23707.012
-31494	-23695.559
-49401	-23693.844
-53416	-23701.244
-42452	-23712.598
-24397	-23724.213
-31466	-23730.834
-49351	-23732.592
-53276	-23731.398
-42322	-23726.467
-24204	-23719.125
-31460	-23708.457
-49371	-23697.705
-53207	-23690.04
-42251	-23684.125
-24197	-23679.396
-31527	-23672.424
-49435	-23664.021
-53135	-23655.854
-42171	-23646.217
-24007	-23635.566
-31515	-23622.299
-49436	-23609.547
-53080	-23600.947
-42099	-23595.908
-24000	-23594.775
-31556	-23594.613
-49457	-23596.195
-53011	-23600.34
-41971	-23603.984
-23724	-23605.94
-31519	-23602.873
-49509	-23596.895
-52986	-23591.246
-41909	-23586.078
-23627	-23583.479
-31548	-23582.535
-49545	-23586.46
-52937	-23597.758
-41794	-23614.238
-23031	-23634.389
-31023	-23653.111
-49556	-23669.281
-52880	-23682.414
-41709	-23689.53
-23627	-23690.117
-31669	-23682.12
-49617	-23669.215
-52834	-23656.318
-41582	-23644.96
-23219	-23638.273
-31567	-23635.7
-49619	-23640.164
-52749	-23653.537
-41456	-23672.645
-23112	-23695.062
-31601	-23714.836
-49709	-23730.678
-52692	-23742.148
-41366	-23746.127
-23070	-23742.611
-31662	-23729.75
-49682	-23711.47
-52608	-23692.592
-41206	-23674.516
-22951	-23660.105
-31707	-23648.404
-49662	-23642.307
-52511	-23643.982
-41119	-23651.111
-22866	-23662.746
-31745	-23674.42
-49731	-23686.56
-52483	-23699.992
-41080	-23712.441
-22853	-23723.754
-31839	-23730.691
-49750	-23734.877
-52405	-23737.875
-40979	-23737.553
-22606	-23733.604
-31873	-23722.223
-49876	-23704.873
-52379	-23683.604
-40911	-23657.86
-22734	-23629.838
-32016	-23599.158
-49863	-23570.71
-52311	-23549.643
-40797	-23537.291
-21801	-23536.201
-31035	-23543.9
-49852	-23560.945
-52247	-23586.877
-40747	-23617.133
-22789	-23648.31
-32184	-23673.602
-49971	-23691.516
-52244	-23701.834
-40691	-23702.459
-22465	-23694.664
-32167	-23676.914
-49980	-23653.469
-52186	-23628.807
-40576	-23604.111
-22348	-23582.021
-32225	-23560.662
-50057	-23542.508
-52136	-23529.498
-40451	-23520.127
-22369	-23514.719
-32404	-23509.693
-50139	-23506.56
-52142	-23506.756
-40366	-23508.607
-22227	-23512.209
-32480	-23513.264
-50223	-23512.469
-52149	-23510.451
-40271	-23505.143
-22007	-23497.016
-32539	-23483.082
-50315	-23466.545
-52114	-23451.076
-40225	-23437.723
-22085	-23429.344
-32592	-23423.893
-50347	-23423.441
-52071	-23428.527
-40122	-23435.4
-22069	-23441.422
-32669	-23439.576
-50429	-23428.645
-52085	-23408.701
-39986	-23378.828
-21841	-23342.287
-32705	-23299.88
-50467	-23258.879
-52062	-23226.562
-39954	-23206.498
-21305	-23202.498
-31970	-23211.373
-50464	-23232.41
-52045	-23262.73
-39928	-23295.34
-22046	-23324.979
-32934	-23343.176
-50637	-23348.562
-52042	-23342.309
-39819	-23325.36
-22011	-23302.598
-33060	-23275.465
-50676	-23250.756
-51973	-23233.75
-39690	-23225.143
-21901	-23225.438
-33171	-23228.758
-50756	-23233.59
-51959	-23237.852
-39617	-23237.5
-21889	-23232.094
-33299	-23218.432
-50809	-23200.557
-51914	-23183.209
-39547	-23168.656
-21664	-23160.502
-33091	-23156.264
-50852	-23157.238
-51862	-23162.854
-39439	-23168.914
-21887	-23173.262
-33533	-23170.035
-50900	-23160.639
-51871	-23147.986
-39405	-23134.164
-21970	-23124.154
-33690	-23118.29
-50952	-23121.041
-51816	-23134.342
-39295	-23154.832
-21793	-23178.752
-33693	-23195.879
-51003	-23201.48
-51788	-23191.594
-39249	-23162.578
-21836	-23116.441
-33807	-23054.354
-51026	-22986.43
-51705	-22924.145
-39131	-22876.578
-21377	-22852.947
-33349	-22854.129
-51006	-22882.08
-51661	-22933.93
-39168	-23000.377
-22094	-23071.936
-34084	-23134.318
-51187	-23180.586
-51686	-23206.625
-39029	-23210.127
-21832	-23194.941
-34096	-23163.402
-51224	-23125.574
-51619	-23091.004
-38956	-23065.447
-21834	-23053.98
-34172	-23053.717
-51229	-23064.67
-51567	-23084.068
-38871	-23105.734
-21685	-23125.879
-34217	-23137.19
-51254	-23140.25
-51532	-23136.924
-38814	-23128.336
-21806	-23118.418
-34334	-23106.271
-51306	-23096.232
-51487	-23090.69
-38754	-23088.438
-21876	-23089.58
-34447	-23089.002
-51354	-23088.012
-51460	-23087.74
-38637	-23087.867
-21692	-23090.752
-34524	-23093.822
-51413	-23100.12
-51380	-23110.604
-38501	-23122.46
-21702	-23133.557
-34655	-23136.021
-51496	-23128.332
-51392	-23109.111
-38461	-23076.738
-21779	-23034.238
-34786	-22982.357
-51509	-22930.219
-51306	-22886.799
-38303	-22858.303
-21650	-22851.137
-34870	-22863.633
-51474	-22897.188
-51261	-22948.479
-38349	-23009.174
-21985	-23071.826
-35059	-23124.555
-51636	-23163.566
-51210	-23186.879
-38179	-23193.488
-21783	-23187.457
-35131	-23170.086
-51666	-23149.93
-51198	-23133.705
-38114	-23124.158
-21838	-23123.63
-35264	-23127.084
-51672	-23134.1
-51154	-23141.887
-38040	-23145.572
-21833	-23143.645
-35358	-23131.572
-51724	-23113.523
-51089	-23094.055
-37950	-23076.383
-21877	-23065.727
-35478	-23061.342
-51738	-23067.176
-51023	-23083.715
-37854	-23107.256
-21862	-23134.99
-35607	-23158.84
-51747	-23178.021
-50989	-23191.54
-37811	-23197.95
-21952	-23199.383
-35722	-23194.219
-51772	-23187.807
-50946	-23183.416
-37718	-23181.004
-21938	-23181.12
-35812	-23178.12
-51817	-23172.363
-50842	-23162.502
-37566	-23145.93
-21809	-23123.607
-35941	-23093.416
-51829	-23061.777
-50764	-23034.54
-37459	-23015.61
-21692	-23010.21
-35856	-23016.756
-51825	-23038.326
-50737	-23073.775
-37467	-23117.32
-22012	-23164.102
-36107	-23204.186
-51909	-23235.164
-50747	-23254.6
-37319	-23260.168
-21800	-23253.926
-36183	-23234.834
-51922	-23209.98
-50649	-23184.896
-37207	-23162.525
-21857	-23146.643
-36264	-23134.62
-51955	-23129.38
-50626	-23130.742
-37136	-23135.88
-21883	-23143.908
-36406	-23149.408
-51996	-23154.525
-50588	-23160.016
-37077	-23165.104
-21839	-23171.098
-36476	-23174.229
-52063	-23177.408
-50568	-23180.996
-36999	-23183.154
-21879	-23183.953
-36536	-23178.973
-52084	-23171.383
-50506	-23162.803
-36890	-23153.588
-21817	-23146.447
-36597	-23139.09
-52107	-23135.936
-50490	-23138.41
-36804	-23144.977
-21879	-23155.219
-36760	-23163.217
-52198	-23169.96
-50468	-23174.6
-36745	-23175.031
-21934	-23172.25
-36841	-23163.455
-52176	-23153.895
-50347	-23146.81
-36626	-23143.479
-21731	-23146.47
-36727	-23152.422
-52207	-23163.957
-50344	-23180.387
-36590	-23198.01
-21919	-23215.074
-36958	-23225.326
-52237	-23230.443
-50297	-23230.908
-36489	-23226.426
-21934	-23219.547
-37065	-23208.615
-52277	-23199.078
-50250	-23193.586
-36402	-23192.137
-21924	-23195.678
-37143	-23199.592
-52300	-23205.678
-50171	-23213.088
-36275	-23219.293
-21827	-23224.145
-37187	-23223.398
-52344	-23220.586
-50142	-23217.283
-36160	-23213.582
-21702	-23211.488
-37186	-23207.896
-52352	-23206.525
-50086	-23208.15
-36066	-23211.393
-21694	-23216.604
-37254	-23219.38
-52389	-23222.605
-50071	-23226.852
-36048	-23231.11
-21779	-23236.283
-37326	-23238.408
-52394	-23240.426
-49974	-23242.387
-35906	-23242.469
-21720	-23240.566
-37457	-23232.062
-52447	-23219.922
-49942	-23205.139
-35723	-23187.887
-21587	-23170.795
-37505	-23152.184
-52516	-23137.686
-49909	-23129.98
-35671	-23129.334
-21710	-23136.824
-37589	-23147.615
-52513	-23163.2
-49859	-23181.697
-35589	-23199.244
-21711	-23214.076
-37674	-23220.576
-52561	-23221.209
-49831	-23217.074
-35422	-23208.6
-21553	-23198.734
-37711	-23185.818
-52584	-23175.312
-49784	-23169.342
-35400	-23167.654
-21720	-23170.922
-37880	-23174.402
-52709	-23180.188
-49806	-23187.541
-35354	-23194.438
-21826	-23200.959
-37962	-23203.098
-52715	-23204.459
-49734	-23206.12
-35219	-23207.688
-21695	-23210.25
-38021	-23209.9
-52754	-23209.629
-49699	-23209.506
-35094	-23208.06
-21721	-23205.762
-38139	-23198.87
-52771	-23191.47
-49612	-23185.37
-35031	-23181.082
-21785	-23180.855
-38194	-23181.836
-52817	-23187.816
-49582	-23198.814
-34920	-23212.486
-21772	-23227.465
-38275	-23237.492
-52835	-23243.664
-49536	-23244.797
-34887	-23239.303
-21870	-23228.371
-38400	-23209.83
-52901	-23189.588
-49530	-23171.146
-34796	-23156.547
-21961	-23148.72
-38501	-23145.217
-52895	-23149.57
-49477	-23161.127
-34652	-23177.068
-21866	-23195.48
-38601	-23210.016
-52906	-23221.906
-49347	-23230.264
-34571	-23233.8
-21976	-23233.617
-38694	-23227.111
-52941	-23219.234
-49336	-23211.932
-34553	-23205.537
-22064	-23201.344
-38727	-23195.623
-52891	-23191.303
-49259	-23187.922
-34428	-23183.736
-21995	-23178.643
-38829	-23168.59
-52857	-23157.303
-49161	-23145.828
-34340	-23134.479
-22123	-23125.129
-38957	-23115.268
-52970	-23109.262
-49175	-23107.953
-34289	-23110.436
-22139	-23116.707
-39044	-23122.027
-52999	-23128.629
-49175	-23135.521
-34191	-23140.785
-22066	-23144.12
-39131	-23141.355
-53015	-23135.924
-49102	-23128.557
-34128	-23119.295
-22194	-23109.758
-39226	-23097.479
-53044	-23087.117
-49037	-23080.098
-33984	-23076.5
-22211	-23077.27
-39309	-23078.734
-53046	-23083.82
-49002	-23091.865
-33947	-23100.787
-22255	-23109.648
-39387	-23113.338
-53047	-23114.27
-48960	-23111.984
-33759	-23105.78
-22141	-23096.867
-39491	-23082.928
-53136	-23069.307
-48932	-23058.387
-33692	-23051.504
-22163	-23050.748
-39599	-23053.322
-53221	-23062.834
-48953	-23078.568
-33597	-23098.23
-22205	-23119.994
-39718	-23137.795
-53240	-23152.88
-48909	-23163.627
-33552	-23168.43
-22251	-23167.652
-39756	-23158.514
-53237	-23146.135
-48824	-23132.758
-33474	-23119.893
-22320	-23109.96
-39884	-23100.785
-53301	-23096.625
-48794	-23097.6
-33331	-23102.244
-22307	-23109.707
-39948	-23114.787
-53304	-23119.531
-48734	-23122.928
-33271	-23123.703
-22465	-23122.28
-40034	-23115.816
-53267	-23109.123
-48661	-23103.855
-33144	-23100.943
-22382	-23102.004
-40135	-23104.29
-53316	-23111.414
-48637	-23122.861
-33186	-23136.7
-22591	-23151.537
-40246	-23162.045
-53322	-23169.998
-48576	-23174.31
-33094	-23173.78
-22594	-23169.01
-40280	-23157.566
-53308	-23144.727
-48569	-23132.62
-33046	-23122.662
-22704	-23116.86
-40449	-23112.826
-53363	-23114.445
-48512	-23121.14
-33001	-23130.973
-22789	-23142.328
-40522	-23149.74
-53359	-23154.996
-48444	-23156.844
-32846	-23154.154
-22740	-23147.588
-40594	-23134.871
-53326	-23121.402
-48369	-23109.27
-32726	-23099.86
-22749	-23095.018
-40635	-23092.26
-53323	-23095.346
-48331	-23103.588
-32662	-23115.166
-22752	-23128.67
-40674	-23138.977
-53320	-23148.281
-48246	-23155.512
-32556	-23159.617
-22799	-23160.953
-40782	-23156.846
-53302	-23151.965
-48204	-23147.42
-32456	-23143.691
-22770	-23141.781
-40834	-23138.807
-53368	-23138.465
-48169	-23140.516
-32386	-23143.91
-22904	-23148.19
-40918	-23149.521
-53379	-23151.082
-48121	-23152.486
-32305	-23153.068
-22954	-23153.025
-41009	-23149.156
-53391	-23145.387
-48081	-23141.803
-32040	-23138.129
-22790	-23134.666
-41089	-23128.4
-53372	-23123.268
-47992	-23119.518
-32054	-23117.006
-22883	-23116.236
-41142	-23114.266
-53424	-23115.117
-47912	-23118.781
-31885	-23124.652
-22940	-23132.47
-41221	-23138.512
-53424	-23145.797
-47914	-23153.436
-31893	-23160.234
-23086	-23165.658
-41341	-23166.234
-53474	-23165.656
-47867	-23164.14
-31784	-23161.775
-23094	-23159.367
-41391	-23154.598
-53424	-23151.906
-47788	-23151.67
-31689	-23153.594
-23151	-23157.506
-41482	-23159.748
-53417	-23163.312
-47708	-23167.135
-31537	-23169.928
-23181	-23171.076
-41571	-23167.26
-53437	-23162.44
-47669	-23157.07
-31482	-23151.648
-23240	-23147.271
-41624	-23141.994
-53446	-23140.451
-47666	-23142.895
-31355	-23148.865
-23202	-23157.781
-41728	-23165.662
-53445	-23175.014
-47558	-23184.426
-31299	-23192.414
-23387	-23198.291
-41843	-23198.906
-53462	-23198.416
-47499	-23197.488
-30614	-23196.951
-22769	-23197.826
-41919	-23197.94
-53402	-23201.635
-47457	-23208.72
-30989	-23218.338
-23314	-23229.352
-42002	-23237.535
-53476	-23245.328
-47399	-23251.27
-30906	-23254.164
-23409	-23253.484
-42087	-23246.434
-53437	-23237.338
-47317	-23226.924
-30719	-23215.967
-23341	-23205.45
-42156	-23193.41
-53466	-23184.254
-47309	-23178.143
-30758	-23174.727
-23567	-23173.52
-42289	-23171.111
-53534	-23170.63
-47312	-23171.082
-30588	-23171.559
-23471	-23171.385
-42370	-23167.281
-53552	-23162.926
-47287	-23158.178
-30441	-23153.24
-23504	-23148.443
-42483	-23141.668
-53542	-23137.438
-47177	-23136.203
-30344	-23138.166
-23545	-23143.16
-42524	-23148.03
-53553	-23155.854
-47116	-23165.164
-30238	-23174.445
-23572	-23181.998
-42585	-23183.844
-53562	-23182.986
-47117	-23178.902
-30233	-23171.76
-23750	-23162.14
-42676	-23148.574
-53548	-23136.158
-47001	-23125.83
-30163	-23118.252
-24066	-23113.35
-42761	-23108.361
-53562	-23106.395
-47009	-23106.336
-30144	-23107.205
-23982	-23108.143
-42866	-23106.363
-53599	-23106.002
-46949	-23107.375
-30026	-23111.082
-24080	-23117.332
-42949	-23123.77
-53615	-23133.729
-46894	-23145.818
-29947	-23158.324
-24109	-23168.984
-43069	-23173.582
-53656	-23174.752
-46863	-23171.742
-29923	-23164.973
-24236	-23155.367
-43132	-23142.36
-53651	-23131.814
-46817	-23125.121
-29844	-23123.07
-24352	-23125.186
-43255	-23127.945
-53654	-23133.275
-46727	-23138.637
-29777	-23141.936
-24467	-23141.342
-43334	-23134.271
-53669	-23125.455
-46721	-23116.479
-29684	-23109.73
-24483	-23107.031
-43354	-23107.59
-53573	-23115.414
-46636	-23128.736
-29642	-23144.586
-24602	-23158.451
-43457	-23163.766
-53609	-23160.553
-46615	-23146.15
-29575	-23120.305
-24672	-23084.514
-43529	-23040.646
-53563	-22997.98
-46460	-22962.11
-30495	-22938.066
-27733	-22928.451
-43735	-22933.145
-53554	-22954.178
-46467	-22987.232
-29628	-23026.582
-25071	-23065.17
-43732	-23094.85
-53596	-23114.795
-46391	-23122.275
-29325	-23117.533
-24931	-23102.512
-43786	-23079.324
-53563	-23056.857
-46332	-23039.512
-29172	-23031.04
-24989	-23032.523
-43909	-23041.525
-53652	-23059.516
-46344	-23082.357
-28987	-23105.873
-24977	-23125.148
-44024	-23135.035
-53655	-23137.691
-46331	-23132.729
-29004	-23121.94
-25072	-23107.217
-44116	-23089.512
-53666	-23075.428
-46255	-23066.377
-28909	-23063.201
-25178	-23064.502
-44169	-23066.605
-53652	-23070.932
-46198	-23074.668
-28794	-23076.094
-25169	-23073.367
-44235	-23064.64
-53701	-23054.797
-46182	-23045.34
-28781	-23038.63
-25365	-23035.871
-44343	-23036.416
-53668	-23044.238
-46087	-23058.021
-28627	-23076.025
-25419	-23094.807
-44416	-23109.781
-53673	-23122.387
-46024	-23130.697
-28573	-23134.5
-25625	-23133.59
-44450	-23127.727
-53617	-23122.666
-45986	-23119.762
-28551	-23120.486
-25684	-23124.264
-44509	-23128.633
-53622	-23135.701
-45936	-23142.846
-28440	-23148.197
-25697	-23149.31
-44626	-23144.006
-53654	-23136.662
-45895	-23128.625
-28402	-23122.525
-25771	-23119.879
-44741	-23120.826
-53681	-23129.613
-45847	-23144.79
-28384	-23164.113
-25934	-23183.018
-44795	-23195.996
-53637	-23203.434
-45794	-23202.906
-28275	-23194.803
-25984	-23180.188
-44856	-23161.295
-53614	-23146.463
-45715	-23139.465
-28197	-23143.4
-26089	-23157.553
-44904	-23177.955
-53576	-23203.121
-45673	-23225.793
-28087	-23239.29
-26084	-23237.002
-44976	-23214.932
-53595	-23178.316
-45594	-23132.543
-27989	-23087.51
-26226	-23053.705
-45035	-23041.232
-53536	-23062.77
-45550	-23122.11
-27921	-23217.84
-26341	-23340.691
-45114	-23475.613
-53494	-23609.066
-45466	-23722.455
-27949	-23800.291
-26801	-23830.32
-45209	-23807.29
-53494	-23738.113
-45443	-23632.152
-27879	-23504.871
-26589	-23372.436
-45321	-23250.297
-53506	-23155.352
-45357	-23094.803
-27705	-23070.559
-26622	-23076.885
-45368	-23103.443
-53478	-23142.352
-45297	-23181.44
-27569	-23211.81
-26620	-23226.521
-45424	-23223.113
-53477	-23207.918
-45247	-23185.842
-27560	-23164.043
-26717	-23147.387
-45489	-23138.896
-53485	-23143.39
-45213	-23158.586
-27462	-23180.82
-26871	-23203.291
-45579	-23219.584
-53466	-23229.193
-45102	-23229.496
-27197	-23221.46
-26794	-23206.266
-45645	-23186.842
-53470	-23171.092
-45057	-23161.871
-27082	-23161.691
-26863	-23169.098
-45728	-23181.135
-53537	-23198.05
-45097	-23215.164
-27119	-23229.436
-27104	-23236.754
-45897	-23235.148
-53590	-23228.84
-45080	-23219.059
-27216	-23209.072
-27585	-23200.072
-46029	-23193.361
-53584	-23193.424
-45011	-23199.197
-27301	-23209.654
-27813	-23220.793
-46017	-23229.33
-53507	-23236.314
-44907	-23239.611
-27124	-23239.295
-27514	-23234.396
-46057	-23225.49
-53491	-23217.828
-44864	-23212.537
-26867	-23211.451
-27462	-23213.562
-46117	-23217.838
-53458	-23226.707
-44794	-23237.963
-26782	-23250.506
-27541	-23261.068
-46193	-23267.686
-53456	-23272.965
-44698	-23275.984
-26756	-23277.404
-27662	-23275.984
-46246	-23271.49
-53421	-23267.715
-44581	-23264.28
-26568	-23261.846
-27719	-23258.682
-46300	-23253.994
-53359	-23250.99
-44544	-23248.783
-26508	-23247.855
-27839	-23246.242
-46371	-23243.094
-53374	-23241.408
-44513	-23240.049
-26549	-23239.19
-27969	-23236.656
-46462	-23231.592
-53343	-23227.31
-44418	-23223.271
-26358	-23220.62
-28005	-23218.178
-46534	-23216.13
-53336	-23218.363
-44386	-23224.488
-26395	-23235.033
-28195	-23247.596
-46567	-23260.61
-53279	-23275.941
-44301	-23291.174
-26874	-23305.19
-29269	-23314.74
-46591	-23318.637
-53212	-23318.742
-44217	-23315.012
-26390	-23308.54
-28436	-23298.162
-46706	-23284.326
-53250	-23271.117
-44181	-23258.541
-26234	-23247.857
-28459	-23237.598
-46757	-23227.605
-53266	-23221.152
-44129	-23217.514
-26031	-23217.316
-28471	-23218.357
-46851	-23219.959
-53257	-23224.783
-44051	-23231.299
-25985	-23239.229
-28574	-23245.424
-46891	-23248.432
-53264	-23250.268
-44032	-23249.229
-26037	-23245.506
-28745	-23236.99
-47011	-23223.908
-53262	-23210.29
-43950	-23196.465
-25782	-23184.492
-28704	-23173.506
-47071	-23164.373
-53226	-23160.887
-43864	-23162.582
-25728	-23170.205
-28841	-23181.334
-47146	-23195.414
-53187	-23215.0
-43772	-23238.684
-25735	-23266.53
-29057	-23295.592
-47194	-23324.857
-53141	-23356.129
-43675	-23387.084
-25524	-23416.73
-29004	-23440.945
-47233	-23457.914
-53107	-23469.135
-43619	-23472.783
-26459	-23469.135
-30430	-23456.402
-47290	-23436.139
-53100	-23412.885
-43574	-23387.867
-25773	-23363.744
-29544	-23339.928
-47422	-23317.684
-53077	-23300.574
-43527	-23287.787
-25525	-23279.719
-29449	-23273.416
-47426	-23268.29
-53017	-23266.674
-43422	-23267.178
-25520	-23270.1
-29610	-23272.611
-47510	-23274.293
-53027	-23277.186
-43396	-23279.406
-25412	-23280.562
-29639	-23277.25
-47516	-23268.986
-52948	-23258.656
-43286	-23246.16
-25421	-23233.84
-29791	-23221.436
-47526	-23211.506
-52856	-23208.914
-43171	-23213.906
-25386	-23227.107
-29917	-23244.43
-47548	-23263.246
-52824	-23282.488
-43122	-23297.225
-25306	-23304.777
-29939	-23300.748
-47622	-23285.537
-52781	-23264.195
-43034	-23240.084
-25278	-23219.479
-30057	-23205.652
-47681	-23203.838
-52800	-23219.645
-43001	-23252.346
-25202	-23299.867
-30146	-23354.262
-47775	-23408.71
-52756	-23458.219
-42911	-23494.922
-25377	-23514.709
-30570	-23512.994
-47809	-23491.502
-52684	-23456.75
-42832	-23413.818
-25368	-23370.111
-30609	-23329.14
-47929	-23295.871
-52789	-23274.98
-42860	-23265.193
-25083	-23264.803
-30529	-23267.418
-48012	-23269.652
-52783	-23270.96
-42796	-23268.793
-25096	-23264.092
-30644	-23256.0
-48076	-23247.762
-52732	-23244.82
-42706	-23248.13
-24903	-23259.02
-30712	-23273.436
-48132	-23289.156
-52712	-23304.969
-42632	-23316.178
-24902	-23320.754
-30803	-23314.873
-48222	-23300.129
-52677	-23281.889
-42597	-23263.303
-24854	-23249.44
-30875	-23241.03
-48276	-23240.455
-52646	-23249.568
-42514	-23264.518
-24854	-23281.582
-31037	-23292.895
-48301	-23294.969
-52606	-23287.92
-42437	-23271.139
-24827	-23248.807
-31052	-23224.02
-48349	-23204.834
-52604	-23200.807
-42435	-23216.234
-25080	-23254.105
-31297	-23309.984
-48434	-23379.15
-52567	-23455.182
-42360	-23526.758
-24691	-23584.531
-31107	-23617.432
-48407	-23621.57
-52432	-23598.854
-42285	-23552.361
-24959	-23490.45
-31476	-23420.076
-48563	-23352.15
-52473	-23297.71
-42244	-23261.596
-24608	-23246.865
-31412	-23249.021
-48573	-23264.422
-52400	-23288.826
-42197	-23314.223
-24724	-23335.379
-31522	-23345.312
-48598	-23343.584
-52332	-23333.492
-42106	-23317.047
-24652	-23299.17
-31534	-23281.096
-48584	-23267.068
-52278	-23261.04
-42149	-23261.871
-25282	-23268.686
-31912	-23276.078
-48601	-23282.244
-52103	-23286.941
-42036	-23287.523
-24646	-23284.559
-31716	-23276.027
-48417	-23264.818
-51902	-23255.207
-42110	-23247.875
-25389	-23244.805
-31984	-23243.604
-48412	-23244.932
-51844	-23249.777
-42096	-23255.44
-25193	-23261.488
-31936	-23264.336
-48336	-23265.205
-51752	-23266.912
-42130	-23269.36
-25575	-23274.836
-32072	-23281.822
-48233	-23292.213
-51700	-23307.826
-43131	-23326.086
-34786	-23344.174
-38442	-23358.902
-47732	-23370.994
-50217	-23380.33
-42842	-23384.676
-34860	-23383.043
-38306	-23375.271
-47827	-23365.32
-50233	-23356.463
-42709	-23348.473
-28947	-23342.828
-34126	-23337.865
-47524	-23335.213
-49999	-23335.936
-42411	-23337.121
-26640	-23338.404
-33226	-23336.24
-47361	-23331.996
-49791	-23327.504
-42223	-23321.45
-26536	-23315.45
-33181	-23307.871
-47230	-23301.533
-49650	-23298.936
-42107	-23298.562
-26403	-23301.113
-33112	-23303.518
-47176	-23306.928
-49502	-23312.242
-41962	-23316.72
-26194	-23320.408
-33102	-23320.053
-47112	-23317.332
-49381	-23314.168
-41912	-23309.158
-26312	-23304.04
-33194	-23297.402
-47124	-23292.639
-49351	-23292.768
-41830	-23296.889
-26227	-23306.213
-33262	-23317.598
-47142	-23331.682
-49270	-23347.861
-41761	-23361.4
-26186	-23370.252
-33266	-23369.31
-47105	-23359.314
-49171	-23342.219
-41674	-23318.127
-24685	-23291.943
-31206	-23265.842
-46913	-23246.104
-49016	-23238.414
-41659	-23243.297
-26895	-23261.14
-33582	-23286.352
-47131	-23315.47
-49089	-23343.172
-41576	-23360.709
-26006	-23363.604
-33330	-23346.738
-47066	-23313.547
-48978	-23270.771
-41432	-23224.791
-25609	-23186.326
-33267	-23161.773
-47096	-23159.854
-48962	-23184.236
-41411	-23230.006
-25703	-23290.13
-33396	-23350.178
-47119	-23399.521
-48959	-23428.246
-41367	-23427.342
-25517	-23396.746
-33334	-23339.25
-47134	-23268.63
-48917	-23201.62
-41269	-23152.01
-25403	-23133.322
-33374	-23148.832
-47175	-23198.5
-48926	-23272.959
-41224	-23352.932
-25461	-23418.725
-33627	-23448.182
-47275	-23430.695
-48966	-23365.229
-41266	-23260.314
-25777	-23139.928
-33796	-23034.291
-47357	-22983.506
-49043	-23025.146
-41318	-23184.836
-25916	-23476.455
-34001	-23891.398
-47534	-24406.646
-49122	-24980.922
-41211	-25557.855
-24071	-26079.941
-31884	-26489.361
-47468	-26744.924
-49031	-26823.35
-41172	-26719.572
-26026	-26452.625
-34193	-26055.898
-47682	-25579.793
-49174	-25078.168
-41089	-24598.623
-25191	-24181.646
-33992	-23849.18
-47697	-23612.396
-49184	-23466.297
-41001	-23391.412
-25045	-23364.688
-34059	-23357.941
-47749	-23352.271
-49139	-23335.04
-40892	-23299.291
-24812	-23249.113
-33989	-23190.025
-47752	-23135.482
-49077	-23096.611
-40742	-23077.625
-24757	-23080.223
-34042	-23096.236
-47736	-23119.035
-49041	-23139.07
-40646	-23145.338
-24691	-23133.588
-34074	-23100.771
-47784	-23055.176
-49082	-23008.107
-40674	-22970.094
-24487	-22953.484
-33941	-22962.277
-47906	-22999.73
-49149	-23060.68
-40566	-23130.89
-24636	-23194.855
-34191	-23232.076
-47929	-23230.717
-49099	-23183.805
-40422	-23090.262
-24449	-22960.844
-34245	-22809.744
-48031	-22661.535
-49162	-22540.326
-40352	-22464.072
-23829	-22446.578
-33694	-22487.51
-48055	-22582.162
-49127	-22715.832
-40345	-22865.326
-24552	-23008.578
-34373	-23121.717
-48184	-23192.53
-49222	-23215.8
-40269	-23192.574
-24367	-23134.45
-34439	-23053.639
-48238	-22969.918
-49181	-22899.66
-40135	-22852.121
-24159	-22833.25
-34418	-22838.092
-48303	-22862.451
-49194	-22897.627
-40037	-22931.924
-24084	-22958.436
-34454	-22969.215
-48349	-22966.244
-49191	-22953.451
-39912	-22934.545
-23899	-22916.4
-34480	-22900.17
-48404	-22890.46
-49202	-22888.064
-39876	-22889.324
-23917	-22892.666
-34576	-22892.531
-48504	-22891.25
-49214	-22892.0
-39788	-22897.76
-23758	-22915.307
-34576	-22945.945
-48538	-22994.16
-49236	-23059.11
-39692	-23132.943
-23722	-23206.428
-34681	-23263.12
-48686	-23292.625
-49276	-23286.223
-39643	-23238.328
-23773	-23153.184
-34848	-23037.455
-48822	-22909.77
-49364	-22790.691
-39597	-22698.39
-23182	-22650.025
-34226	-22651.64
-48903	-22703.695
-49370	-22799.32
-39582	-22923.691
-23782	-23059.104
-35009	-23182.29
-49002	-23276.246
-49418	-23331.121
-39475	-23343.648
-23651	-23319.5
-35114	-23264.906
-49139	-23195.133
-49481	-23125.633
-39510	-23067.81
-23801	-23031.043
-35304	-23013.646
-49243	-23015.07
-49501	-23029.814
-39426	-23048.777
-23765	-23065.78
-35336	-23071.078
-49264	-23064.418
-49454	-23047.658
-39251	-23023.64
-23729	-22999.088
-35393	-22974.953
-49293	-22957.234
-49378	-22948.477
-39211	-22947.314
-23775	-22953.066
-35477	-22958.559
-49307	-22963.28
-49342	-22966.41
-39093	-22967.059
-23634	-22968.262
-35551	-22968.13
-49348	-22971.139
-49321	-22979.367
-39084	-22991.572
-23728	-23007.096
-35599	-23017.94
-49339	-23021.953
-49229	-23016.074
-39037	-22997.26
-23955	-22967.463
-35757	-22925.787
-49386	-22880.307
-49244	-22839.05
-38996	-22808.602
-23811	-22796.555
-35707	-22801.977
-49440	-22827.295
-49202	-22870.084
-39044	-22922.69
-24334	-22978.678
-36094	-23026.145
-49446	-23060.812
-49178	-23079.795
-39042	-23081.656
-24481	-23070.205
-36277	-23046.016
-49475	-23017.152
-49117	-22989.896
-39021	-22967.598
-24524	-22954.027
-36303	-22945.248
-49387	-22942.18
-48992	-22942.816
-39033	-22943.479
-24855	-22943.48
-36506	-22937.982
-49379	-22930.059
-48929	-22921.926
-39122	-22914.709
-25131	-22911.695
-36677	-22909.973
-49362	-22912.004
-48857	-22917.117
-39024	-22922.227
-25161	-22926.43
-36784	-22924.049
-49289	-22917.229
-48771	-22907.355
-39069	-22895.688
-25192	-22886.69
-36932	-22879.633
-49266	-22879.773
-48680	-22888.62
-39025	-22904.39
-25247	-22925.812
-37055	-22944.92
-49184	-22959.94
-48539	-22967.338
-39020	-22963.572
-25324	-22949.637
-37111	-22923.594
-49066	-22892.312
-48399	-22861.85
-38926	-22836.994
-24807	-22824.42
-36726	-22823.32
-48986	-22837.766
-48235	-22867.066
-38892	-22906.03
-25372	-22951.125
-37317	-22993.31
-48923	-23030.883
-48201	-23061.303
-38885	-23082.436
-25332	-23096.424
-37462	-23101.459
-48921	-23103.578
-48082	-23105.91
-38676	-23109.48
-24849	-23116.582
-37411	-23122.805
-48788	-23129.926
-47915	-23136.29
-38509	-23138.99
-24554	-23138.33
-37384	-23130.023
-48693	-23118.3
-47774	-23105.24
-38430	-23091.982
-24587	-23082.105
-37464	-23073.037
-48664	-23068.62
-47714	-23068.459
-38445	-23070.027
-24492	-23073.012
-37267	-23071.498
-48613	-23067.7
-47611	-23061.588
-38272	-23052.973
-24471	-23045.021
-37533	-23035.834
-48578	-23030.955
-47569	-23031.982
-38156	-23038.14
-24356	-23050.02
-37636	-23061.615
-48572	-23073.867
-47477	-23084.408
-38046	-23090.246
-24388	-23092.078
-37701	-23086.492
-48551	-23079.05
-47385	-23072.959
-37935	-23070.54
-24018	-23076.389
-37407	-23088.395
-48552	-23110.615
-47367	-23142.043
-37786	-23178.682
-24141	-23218.14
-37756	-23252.176
-48501	-23280.605
-47257	-23301.0
-37548	-23311.248
-23795	-23313.504
-37742	-23305.781
-48506	-23294.918
-47173	-23284.645
-37481	-23277.25
-23874	-23276.727
-37793	-23280.31
-48552	-23291.734
-47179	-23310.016
-37402	-23332.193
-23796	-23357.492
-37845	-23379.553
-48565	-23400.285
-47186	-23418.492
-37324	-23432.504
-23800	-23443.59
-37973	-23447.947
-48621	-23449.775
-47126	-23449.68
-37216	-23447.113
-23845	-23444.158
-38044	-23437.516
-48672	-23431.887
-47182	-23428.354
-37231	-23427.031
-23984	-23430.229
-38133	-23434.396
-48740	-23443.098
-47107	-23455.273
-37029	-23467.82
-23806	-23479.336
-38114	-23482.723
-48713	-23478.928
-47097	-23465.889
-36986	-23441.824
-23887	-23409.082
-38164	-23366.408
-48718	-23321.887
-47066	-23280.68
-36915	-23247.057
-23999	-23226.916
-38348	-23219.246
-48700	-23228.932
-46979	-23254.473
-36837	-23290.865
-24060	-23333.9
-38320	-23373.312
-48761	-23406.646
-46977	-23428.564
-36729	-23434.535
-23932	-23424.557
-38376	-23395.729
-48814	-23354.947
-46977	-23306.574
-36565	-23254.693
-23888	-23205.535
-38511	-23159.299
-48800	-23122.686
-46940	-23096.834
-36522	-23080.459
-23982	-23073.248
-38594	-23068.992
-48901	-23068.889
-46975	-23070.256
-36445	-23069.967
-23978	-23067.836
-38719	-23059.314
-48954	-23048.438
-46971	-23035.768
-36370	-23021.414
-24089	-23007.887
-38852	-22992.71
-49079	-22980.957
-47032	-22973.393
-36354	-22969.559
-24126	-22970.566
-38957	-22972.057
-49149	-22976.94
-46983	-22983.586
-36211	-22989.346
-24022	-22993.637
-38972	-22991.06
-49197	-22984.428
-47054	-22973.2
-36200	-22956.799
-24152	-22937.463
-39139	-22913.057
-49302	-22889.48
-47086	-22868.67
-36069	-22851.33
-23911	-22839.6
-39086	-22829.652
-49387	-22824.564
-47095	-22822.68
-36071	-22821.162
-24158	-22819.213
-39371	-22811.494
-49629	-22801.006
-47318	-22787.805
-36189	-22772.193
-24339	-22757.07
-39721	-22740.625
-49976	-22728.633
-47594	-22722.33
-36279	-22721.605
-24479	-22727.084
-40001	-22733.508
-50227	-22742.602
-47765	-22752.04
-36292	-22759.14
-24371	-22763.756
-40024	-22761.545
-50267	-22756.85
-47638	-22751.11
-36068	-22745.805
-24201	-22744.176
-39842	-22744.049
-50093	-22749.947
-47431	-22761.723
-35632	-22777.701
-23816	-22796.96
-39677	-22813.006
-50047	-22826.826
-47283	-22836.281
-35364	-22839.6
-23726	-22837.57
-39595	-22826.975
-49966	-22813.047
-47161	-22797.83
-35207	-22783.232
-23766	-22772.28
-39676	-22762.414
-50068	-22757.887
-47161	-22758.502
-35107	-22763.162
-23756	-22771.73
-39686	-22778.814
-50056	-22786.746
-47100	-22794.367
-34941	-22800.684
-23704	-22806.326
-39695	-22807.107
-50202	-22806.637
-47132	-22804.928
-34897	-22801.672
-23872	-22797.947
-39795	-22789.852
-50229	-22781.22
-47114	-22772.377
-34773	-22763.787
-23807	-22757.191
-39823	-22749.36
-50311	-22744.512
-47086	-22742.914
-34616	-22744.418
-23777	-22749.576
-39911	-22753.523
-50429	-22758.932
-47126	-22764.615
-34526	-22769.688
-23799	-22774.756
-39987	-22775.94
-50481	-22777.63
-47094	-22780.482
-34442	-22785.537
-23820	-22794.494
-40035	-22803.635
-50551	-22816.377
-47129	-22831.453
-34380	-22847.363
-23867	-22863.236
-40156	-22873.275
-50669	-22880.041
-47135	-22882.805
-34319	-22881.812
-23987	-22879.07
-40261	-22872.197
-50740	-22866.86
-47112	-22864.361
-34159	-22865.814
-23879	-22872.273
-40344	-22878.916
-50834	-22888.041
-47151	-22897.297
-34112	-22904.832
-23964	-22909.861
-40381	-22907.713
-50911	-22902.48
-47143	-22895.27
-34016	-22888.562
-23945	-22885.994
-40400	-22886.426
-50934	-22896.117
-47111	-22916.287
-33870	-22947.469
-23954	-22989.686
-40522	-23037.213
-51077	-23091.367
-47179	-23148.951
-33847	-23207.375
-24022	-23264.893
-40611	-23315.633
-51120	-23362.094
-47131	-23402.988
-33767	-23438.004
-24047	-23467.502
-40730	-23487.168
-51244	-23500.326
-47171	-23505.99
-33601	-23503.736
-23988	-23493.67
-40755	-23471.533
-51282	-23441.293
-47171	-23403.09
-33506	-23358.305
-23956	-23309.117
-40819	-23253.525
-51357	-23197.494
-47126	-23142.707
-33362	-23091.426
-23940	-23045.979
-40905	-23003.715
-51464	-22969.363
-47158	-22942.836
-33261	-22924.24
-23935	-22913.508
-40929	-22905.627
-51531	-22902.873
-47156	-22903.096
-33142	-22904.812
-23923	-22906.88
-41005	-22904.092
-51578	-22899.482
-47116	-22892.418
-33036	-22883.77
-23999	-22875.14
-41079	-22864.148
-51671	-22856.145
-47141	-22852.035
-32292	-22853.148
-23393	-22859.918
-41161	-22867.633
-51730	-22878.604
-47078	-22890.44
-32857	-22901.475
-24119	-22910.295
-41270	-22911.928
-51831	-22909.709
-47099	-22903.799
-32719	-22895.941
-24001	-22888.328
-41254	-22879.105
-51864	-22873.557
-47055	-22872.229
-32410	-22875.676
-23854	-22883.479
-41343	-22890.44
-51958	-22898.479
-47106	-22905.455
-32426	-22910.588
-23939	-22913.66
-41398	-22911.23
-52025	-22907.973
-47068	-22905.049
-32246	-22904.613
-23942	-22908.3
-41477	-22913.17
-52081	-22922.846
-47024	-22935.97
-32167	-22951.547
-23971	-22967.918
-41539	-22979.56
-52176	-22988.688
-47057	-22994.193
-32137	-22996.646
-24040	-22997.104
-41612	-22993.229
-52234	-22990.127
-47011	-22988.705
-32023	-22990.28
-24105	-22995.203
-41725	-22999.354
-52341	-23005.33
-47037	-23011.422
-31874	-23016.916
-24015	-23021.05
-41818	-23019.781
-52371	-23016.91
-46982	-23012.686
-31501	-23008.76
-23836	-23006.312
-41863	-23002.662
-52406	-23002.125
-47002	-23004.514
-31683	-23010.168
-24136	-23018.707
-42007	-23025.959
-52492	-23034.938
-46966	-23044.63
-31506	-23055.16
-24080	-23066.164
-42064	-23073.729
-52556	-23081.049
-46989	-23087.078
-31482	-23091.84
-24189	-23094.742
-42148	-23091.986
-52621	-23087.213
-46975	-23080.377
-31259	-23073.02
-24089	-23066.324
-42290	-23058.16
-52683	-23053.414
-46964	-23052.242
-31235	-23055.188
-24131	-23061.373
-42319	-23065.861
-52722	-23070.54
-46942	-23073.096
-31234	-23072.893
-24332	-23069.432
-42424	-23060.098
-52781	-23050.307
-46942	-23041.854
-31119	-23037.812
-24297	-23039.908
-42537	-23045.547
-52856	-23057.65
-46954	-23073.246
-31092	-23089.246
-24468	-23101.115
-42589	-23101.52
-52842	-23091.23
-46893	-23068.744
-30865	-23036.12
-24362	-22996.887
-42682	-22953.352
-52918	-22915.65
-46881	-22889.406
-30874	-22879.9
-24487	-22889.105
-42755	-22913.133
-52929	-22952.035
-46804	-22999.377
-30844	-23048.465
-24649	-23091.855
-42843	-23120.475
-52929	-23134.305
-46796	-23132.02
-30841	-23116.168
-24724	-23090.78
-42927	-23058.393
-52969	-23028.518
-46785	-23005.574
-30818	-22993.232
-24867	-22992.188
-43031	-22998.176
-52959	-23011.863
-46696	-23028.852
-30691	-23045.666
-24891	-23058.69
-43086	-23063.09
-52962	-23062.037
-46678	-23056.059
-30638	-23047.705
-24936	-23039.123
-43158	-23029.75
-52982	-23024.826
-46639	-23024.674
-30614	-23029.646
-25079	-23038.42
-43234	-23046.852
-52957	-23057.096
-46576	-23067.447
-30538	-23077.61
-25124	-23086.797
-43282	-23092.098
-52948	-23096.998
-46539	-23100.86
-30551	-23103.74
-25236	-23104.592
-43367	-23099.92
-52979	-23092.672
-46517	-23082.078
-30507	-23068.906
-25376	-23053.7
-43449	-23035.465
-52941	-23019.723
-46437	-23008.01
-30399	-23002.465
-25447	-23003.648
-43506	-23008.984
-52963	-23021.133
-46394	-23037.791
-30394	-23057.16
-25563	-23076.25
-43586	-23090.379
-52965	-23101.521
-46372	-23108.371
-30246	-23111.506
-25553	-23111.13
-43662	-23105.96
-52971	-23100.94
-46339	-23096.67
-30251	-23094.422
-25651	-23093.941
-43736	-23092.547
-52987	-23093.295
-46311	-23094.943
-30165	-23097.344
-25719	-23099.496
-43777	-23098.875
-52949	-23099.21
-46212	-23100.287
-29996	-23103.064
-25760	-23107.291
-43848	-23110.791
-52927	-23117.135
-46178	-23125.404
-29980	-23135.57
-25857	-23146.346
-43930	-23154.732
-52934	-23163.604
-46111	-23171.71
-29942	-23179.031
-25952	-23184.475
-43971	-23185.502
-52892	-23185.547
-46086	-23183.906
-29839	-23181.207
-25986	-23176.988
-44041	-23169.58
-52891	-23163.152
-46026	-23157.78
-29922	-23154.531
-26201	-23153.246
-44126	-23152.117
-52909	-23154.646
-46004	-23159.822
-29797	-23167.379
-26223	-23175.691
-44196	-23181.934
-52915	-23188.94
-45977	-23195.41
-29795	-23201.652
-26342	-23207.13
-44224	-23210.283
-52846	-23215.125
-45877	-23221.39
-29689	-23229.57
-26352	-23238.576
-44272	-23245.697
-52831	-23253.389
-45876	-23259.805
-29595	-23264.281
-26361	-23265.336
-44342	-23260.898
-52836	-23254.943
-45772	-23247.748
-29495	-23241.037
-26471	-23235.377
-44429	-23230.105
-52812	-23229.445
-45724	-23232.705
-29417	-23239.562
-26483	-23247.902
-44469	-23254.314
-52794	-23260.705
-45664	-23265.025
-29208	-23266.955
-26503	-23265.59
-44546	-23259.848
-52825	-23254.424
-45636	-23250.04
-29190	-23248.465
-26565	-23249.676
-44561	-23252.27
-52753	-23259.314
-45577	-23269.004
-29091	-23280.193
-26647	-23290.316
-44670	-23296.229
-52802	-23300.465
-45518	-23301.969
-28996	-23301.48
-26708	-23298.902
-44737	-23293.795
-52809	-23290.824
-45471	-23290.055
-28964	-23292.248
-26929	-23296.074
-44794	-23299.277
-52767	-23304.184
-45423	-23308.691
-29029	-23312.152
-27380	-23312.82
-44930	-23309.305
-52803	-23305.64
-45389	-23301.977
-28794	-23299.89
-26989	-23299.291
-44967	-23299.328
-52841	-23303.404
-45334	-23309.996
-28694	-23318.248
-27015	-23325.363
-44961	-23328.336
-52796	-23329.197
-45321	-23326.4
-28558	-23320.445
-27048	-23310.893
-45117	-23297.832
-52882	-23286.428
-45294	-23277.484
-28601	-23272.775
-27224	-23271.744
-45193	-23272.918
-52882	-23278.83
-45251	-23287.07
-28495	-23296.262
-27289	-23303.41
-45236	-23305.91
-52877	-23306.44
-45199	-23304.168
-28308	-23300.338
-27326	-23294.89
-45304	-23288.066
-52849	-23284.613
-45144	-23284.66
-28306	-23289.04
-27393	-23296.203
-45376	-23304.17
-52844	-23315.012
-45070	-23326.572
-28249	-23337.93
-27539	-23346.78
-45416	-23351.414
-52809	-23355.045
-45022	-23356.988
-28214	-23358.16
-27779	-23357.648
-45508	-23354.838
-52796	-23353.22
-44881	-23351.936
-28133	-23351.094
-27746	-23348.988
-45549	-23344.232
-52769	-23339.87
-44927	-23335.043
-28084	-23330.371
-27814	-23324.838
-45599	-23317.89
-52751	-23313.236
-44842	-23310.266
-27894	-23309.537
-27817	-23309.346
-45667	-23308.299
-52766	-23309.016
-44784	-23309.938
-27907	-23310.934
-27886	-23310.04
-45658	-23306.006
-52671	-23301.986
-44719	-23297.15
-27883	-23292.256
-28047	-23286.072
-45744	-23278.078
-52692	-23271.777
-44723	-23266.477
-27756	-23262.9
-28066	-23259.63
-45812	-23255.791
-52711	-23254.541
-44669	-23254.79
-27817	-23256.795
-28210	-23258.662
-45896	-23259.04
-52723	-23260.545
-44621	-23261.783
-27607	-23262.887
-28232	-23261.998
-45929	-23258.363
-52671	-23255.588
-44525	-23253.451
-27571	-23253.496
-28374	-23255.074
-46041	-23258.363
-52686	-23267.113
-44479	-23280.48
-27569	-23298.56
-28650	-23318.46
-46090	-23337.787
-52630	-23357.52
-44385	-23374.52
-27501	-23387.344
-28642	-23392.732
-46197	-23389.182
-52705	-23379.746
-44431	-23364.45
-27399	-23345.438
-28658	-23323.152
-46254	-23299.246
-52671	-23279.03
-44359	-23263.441
-27312	-23254.326
-28717	-23250.43
-46271	-23250.914
-52664	-23257.941
-44321	-23269.25
-27246	-23283.816
-28815	-23298.197
-46334	-23310.34
-52597	-23322.07
-44223	-23331.64
-27274	-23339.242
-29006	-23342.982
-46436	-23342.549
-52673	-23341.227
-44241	-23338.535
-27109	-23335.537
-28997	-23330.734
-46474	-23323.932
-52638	-23318.361
-44161	-23313.328
-27057	-23309.766
-29096	-23305.982
-46519	-23301.783
-52595	-23300.293
-44078	-23300.75
-26961	-23303.816
-29199	-23307.357
-46562	-23310.709
-52559	-23316.273
-44032	-23322.545
-26937	-23329.566
-29315	-23334.809
-46671	-23337.4
-52573	-23339.984
-43968	-23341.582
-27201	-23342.9
-29816	-23342.217
-46659	-23339.61
-52512	-23338.188
-43906	-23337.184
-27032	-23337.25
-29632	-23336.19
-46794	-23333.396
-52542	-23331.312
-43874	-23328.66
-26874	-23325.906
-29647	-23320.936
-46816	-23313.697
-52496	-23307.35
-43816	-23301.51
-26864	-23297.387
-29755	-23293.324
-46893	-23289.332
-52513	-23288.16
-43792	-23288.594
-26746	-23290.803
-29784	-23292.143
-47012	-23291.842
-52529	-23292.414
-43726	-23292.818
-26707	-23294.057
-29952	-23294.441
-47033	-23294.453
-52488	-23297.348
-43651	-23302.455
-26674	-23310.377
-30084	-23318.316
-47146	-23325.209
-52499	-23332.602
-43626	-23338.176
-26551	-23341.662
-30091	-23340.203
-47142	-23333.795
-52465	-23325.85
-43576	-23316.666
-26669	-23308.566
-30301	-23301.004
-47213	-23295.45
-52444	-23295.473
-43502	-23300.27
-26526	-23310.006
-30319	-23321.127
-47250	-23332.129
-52414	-23343.889
-43401	-23353.945
-26418	-23362.059
-30420	-23365.586
-47196	-23364.973
-52316	-23363.645
-43342	-23361.754
-27077	-23360.934
-30991	-23359.754
-47459	-23358.766
-52443	-23360.121
-43389	-23362.24
-26486	-23364.902
-30681	-23364.71
-47449	-23361.156
-52393	-23356.545
-43293	-23350.168
-26245	-23343.69
-30716	-23335.953
-47533	-23328.574
-52361	-23325.297
-43226	-23325.867
-26305	-23331.203
-30863	-23338.271
-47549	-23346.297
-52359	-23356.385
-43172	-23365.906
-26247	-23374.344
-30972	-23378.36
-47588	-23378.041
-52347	-23376.146
-43117	-23372.422
-26175	-23368.572
-31044	-23363.055
-47685	-23356.943
-52356	-23352.967
-43094	-23349.977
-26201	-23348.277
-31132	-23344.732
-47710	-23339.332
-52261	-23334.389
-42957	-23329.242
-26169	-23325.564
-31219	-23322.146
-47711	-23321.014
-52211	-23325.973
-42881	-23336.885
-26054	-23354.627
-31296	-23375.791
-47786	-23399.176
-52209	-23424.625
-42871	-23448.227
-26139	-23467.926
-31501	-23478.895
-47814	-23480.414
-52160	-23474.697
-42781	-23461.916
-26131	-23445.03
-31562	-23424.436
-47887	-23403.84
-52115	-23388.258
-42691	-23378.65
-25897	-23376.557
-31546	-23378.893
-47937	-23384.727
-52097	-23394.13
-42628	-23403.588
-25856	-23411.703
-31604	-23414.383
-47997	-23411.926
-52112	-23407.291
-42589	-23401.021
-25824	-23396.008
-31673	-23391.678
-48005	-23390.293
-52066	-23394.76
-42565	-23403.557
-25704	-23416.062
-31710	-23427.32
-48106	-23435.588
-52096	-23440.957
-42529	-23441.23
-25658	-23437.229
-31774	-23427.473
-48135	-23415.086
-52025	-23405.217
-42424	-23399.695
-25548	-23401.465
-31810	-23408.537
-48215	-23420.877
-52055	-23438.27
-42382	-23456.207
-25465	-23471.57
-31839	-23477.959
-48245	-23473.896
-52004	-23461.02
-42349	-23440.033
-25475	-23415.45
-31931	-23389.576
-48328	-23368.906
-51979	-23360.604
-42214	-23367.162
-25164	-23390.639
-31834	-23426.598
-48381	-23471.762
-51981	-23522.133
-42184	-23569.791
-25255	-23608.936
-31947	-23631.494
-48461	-23635.365
-51996	-23622.514
-42164	-23594.582
-25169	-23557.414
-31909	-23514.334
-48495	-23472.662
-51963	-23439.988
-42116	-23419.016
-25337	-23412.143
-32145	-23415.607
-48582	-23427.531
-51925	-23445.861
-42014	-23465.143
-24889	-23482.47
-32027	-23492.125
-48571	-23494.035
-51864	-23490.732
-41961	-23483.1
-24859	-23474.885
-32069	-23465.955
-48646	-23459.666
-51874	-23459.434
-41896	-23464.504
-24763	-23474.969
-32112	-23486.01
-48675	-23496.324
-51815	-23505.65
-41829	-23511.092
-24635	-23512.676
-32110	-23507.246
-48682	-23496.643
-51751	-23484.299
-41765	-23471.084
-24609	-23460.023
-32182	-23449.85
-48746	-23442.94
-51762	-23441.87
-41701	-23445.768
-24435	-23455.162
-32186	-23465.959
-48780	-23477.94
-51704	-23491.547
-41613	-23504.244
-24254	-23515.848
-32097	-23522.19
-48797	-23523.664
-51632	-23521.89
-41516	-23516.236
-24327	-23508.54
-32342	-23496.793
-48904	-23483.408
-51652	-23471.691
-41466	-23461.848
-24217	-23455.953
-32377	-23451.236
-48934	-23448.834
-51586	-23450.018
-41376	-23452.93
-24068	-23457.664
-32476	-23460.059
-49029	-23460.602
-51587	-23460.883
-41352	-23460.07
-24137	-23459.791
-32665	-23457.54
-49121	-23455.295
-51621	-23455.365
-41284	-23456.914
-23826	-23460.846
-32599	-23463.213
-49156	-23464.408
-51609	-23465.355
-41214	-23464.434
-23669	-23462.635
-32617	-23456.883
-49192	-23449.21
-51542	-23442.451
-41149	-23436.855
-23743	-23434.643
-32682	-23433.11
-49227	-23433.668
-51536	-23437.535
-41089	-23442.682
-23696	-23449.059
-32787	-23451.924
-49284	-23451.557
-51519	-23449.03
-41040	-23443.4
-23384	-23436.475
-32502	-23425.908
-49288	-23414.201
-51452	-23404.277
-40964	-23396.184
-23533	-23391.764
-32771	-23387.877
-49371	-23385.824
-51469	-23386.883
-40966	-23389.8
-23912	-23395.469
-33214	-23400.48
-49447	-23406.166
-51465	-23414.223
-40915	-23423.727
-23804	-23435.504
-33191	-23445.453
-49468	-23453.924
-51420	-23461.02
-40811	-23464.365
-23726	-23463.986
-33282	-23455.795
-49542	-23441.55
-51396	-23423.854
-40766	-23403.582
-23655	-23384.375
-33361	-23365.297
-49548	-23350.047
-51362	-23341.564
-40711	-23339.244
-23724	-23343.479
-33472	-23349.05
-49644	-23355.15
-51389	-23360.697
-40662	-23362.648
-23692	-23360.922
-33561	-23351.947
-49667	-23338.408
-51302	-23323.76
-40549	-23309.594
-23686	-23299.545
-33684	-23292.012
-49713	-23289.463
-51308	-23292.89
-40489	-23299.824
-23504	-23308.965
-33672	-23314.023
-49729	-23314.121
-51194	-23308.969
-40359	-23297.223
-23587	-23280.98
-33841	-23258.877
-49786	-23235.654
-51182	-23215.918
-40318	-23201.672
-23269	-23196.121
-33641	-23196.328
-49811	-23203.248
-51162	-23216.205
-40270	-23231.582
-23471	-23247.482
-33987	-23257.691
-49927	-23262.133
-51157	-23261.479
-40168	-23255.537
-23381	-23247.24
-34067	-23235.46
-49919	-23224.67
-51068	-23218.55
-40024	-23217.795
-23212	-23224.209
-34117	-23233.592
-49919	-23246.285
-50983	-23261.354
-39959	-23275.42
-23251	-23287.32
-34197	-23291.662
-49967	-23289.268
-50976	-23281.344
-39907	-23267.791
-23096	-23251.469
-34257	-23230.738
-50041	-23209.852
-50941	-23192.352
-39822	-23179.2
-23232	-23172.959
-34372	-23170.615
-50025	-23173.955
-50877	-23183.312
-39691	-23196.115
-23006	-23211.453
-34352	-23223.074
-50093	-23230.564
-50883	-23232.994
-39644	-23228.059
-23028	-23216.545
-34497	-23195.463
-50143	-23168.723
-50851	-23140.502
-39600	-23113.521
-23025	-23092.932
-34592	-23078.527
-50202	-23075.09
-50839	-23085.236
-39551	-23107.809
-22914	-23142.262
-34473	-23181.645
-50205	-23223.861
-50792	-23265.643
-39441	-23301.867
-23122	-23330.611
-34745	-23346.367
-50279	-23351.121
-50759	-23347.447
-39361	-23336.91
-22972	-23323.912
-34806	-23307.977
-50276	-23294.02
-50721	-23285.049
-39282	-23280.846
-22798	-23282.348
-34891	-23284.629
-50360	-23288.35
-50728	-23293.201
-39269	-23297.209
-23011	-23301.227
-35016	-23301.686
-50376	-23301.752
-50645	-23303.576
-39217	-23307.086
-23019	-23314.068
-35145	-23320.584
-50469	-23328.152
-50684	-23336.652
-39126	-23343.576
-22940	-23348.816
-35228	-23347.72
-50481	-23342.525
-50607	-23335.023
-39081	-23325.594
-23029	-23317.17
-35348	-23307.672
-50513	-23300.79
-50599	-23298.154
-39010	-23298.45
-23008	-23301.723
-35437	-23302.438
-50517	-23301.162
-50522	-23297.473
-38927	-23289.566
-22969	-23278.88
-35512	-23262.793
-50545	-23245.926
-50494	-23231.877
-38853	-23222.115
-22969	-23219.81
-35600	-23222.03
-50582	-23231.057
-50436	-23246.504
-38731	-23264.879
-23006	-23284.469
-35711	-23298.512
-50642	-23307.26
-50394	-23310.281
-38679	-23306.299
-23031	-23297.336
-35877	-23281.27
-50661	-23262.941
-50370	-23245.668
-38680	-23230.428
-23221	-23219.762
-36002	-23210.467
-50737	-23205.225
-50366	-23204.352
-38577	-23205.996
-23051	-23210.387
-36039	-23212.885
-50729	-23215.662
-50313	-23219.271
-38497	-23222.543
-23087	-23226.477
-36184	-23226.9
-50787	-23226.287
-50286	-23224.986
-38441	-23221.51
-23094	-23216.822
-36251	-23207.164
-50830	-23196.014
-50262	-23185.318
-38403	-23175.482
-23127	-23169.242
-36324	-23164.012
-50814	-23163.518
-50204	-23168.635
-38299	-23177.617
-23077	-23190.047
-36440	-23200.033
-50911	-23208.305
-50226	-23213.861
-38286	-23214.566
-23206	-23211.414
-36536	-23201.398
-50918	-23189.268
-50166	-23178.207
-38145	-23169.492
-23071	-23166.248
-36594	-23165.664
-50903	-23170.773
-50066	-23181.28
-38052	-23194.148
-23134	-23208.008
-36726	-23216.43
-50982	-23220.36
-50110	-23219.49
-38054	-23212.951
-23138	-23203.053
-36776	-23188.086
-51056	-23173.64
-50089	-23163.102
-37987	-23157.643
-23213	-23159.666
-36919	-23165.443
-51091	-23177.053
-50099	-23193.406
-37918	-23211.234
-23102	-23229.291
-36948	-23241.59
-51106	-23249.832
-49942	-23254.225
-37781	-23254.23
-23081	-23252.088
-37002	-23245.52
-51155	-23239.21
-49990	-23235.432
-37726	-23234.266
-23069	-23237.287
-37065	-23240.328
-51140	-23245.752
-49943	-23253.08
-37711	-23260.15
-23083	-23266.934
-37162	-23268.713
-51229	-23268.145
-49902	-23265.951
-37610	-23261.686
-23062	-23257.225
-37288	-23249.574
-51269	-23242.812
-49900	-23238.234
-37568	-23235.383
-23364	-23235.371
-37471	-23234.15
-51259	-23234.324
-49844	-23235.822
-37477	-23237.092
-23043	-23238.729
-37292	-23236.564
-51247	-23233.89
-49785	-23231.715
-37387	-23229.889
-23257	-23230.412
-37576	-23230.406
-51374	-23233.807
-49819	-23241.629
-37388	-23252.924
-23342	-23268.025
-37596	-23281.97
-51319	-23296.35
-49725	-23309.928
-37262	-23320.193
-23189	-23326.96
-37677	-23325.805
-51375	-23320.123
-49684	-23311.424
-37176	-23300.426
-23146	-23290.203
-37737	-23278.986
-51444	-23271.744
-49677	-23270.049
-37128	-23273.3
-23197	-23281.877
-37790	-23290.53
-51443	-23300.592
-49631	-23310.45
-37029	-23317.395
-23116	-23321.34
-37847	-23318.076
-51463	-23311.52
-49602	-23303.52
-36977	-23295.13
-23266	-23289.47
-37962	-23284.467
-51517	-23284.578
-49551	-23290.377
-36819	-23300.297
-23096	-23313.787
-38004	-23324.906
-51572	-23334.8
-49549	-23341.957
-36787	-23344.281
-23109	-23342.432
-38069	-23333.121
-51597	-23321.068
-49481	-23308.52
-36709	-23296.588
-23202	-23288.09
-38091	-23280.455
-51520	-23277.65
-49387	-23279.959
-36627	-23285.76
-23387	-23295.01
-38271	-23302.812
-51614	-23311.525
-49404	-23320.932
-36582	-23329.826
-23211	-23339.22
-38255	-23345.309
-51604	-23351.506
-49382	-23357.885
-36524	-23363.072
-23256	-23367.299
-38345	-23365.91
-51648	-23361.719
-49332	-23354.729
-36417	-23344.438
-23249	-23332.8
-38443	-23317.55
-51721	-23303.902
-49318	-23293.979
-36344	-23288.344
-23176	-23288.592
-38470	-23290.646
-51669	-23296.66
-49231	-23305.102
-36244	-23312.977
-23252	-23319.295
-38573	-23318.998
-51720	-23315.309
-49159	-23309.367
-36128	-23302.24
-23249	-23297.393
-38662	-23293.557
-51750	-23296.19
-49161	-23306.395
-36061	-23322.898
-23205	-23344.674
-38709	-23364.805
-51777	-23383.074
-49144	-23396.18
-36000	-23400.695
-23301	-23396.404
-38811	-23380.191
-51848	-23357.918
-49146	-23333.621
-35986	-23310.992
-23294	-23295.236
-38922	-23285.879
-51843	-23288.004
-49076	-23301.455
-35857	-23323.262
-23225	-23350.57
-39018	-23375.117
-51929	-23395.96
-49028	-23409.844
-35836	-23414.092
-23434	-23409.445
-39093	-23393.875
-51937	-23373.879
-49029	-23353.316
-35776	-23335.082
-23339	-23322.97
-39173	-23314.79
-51981	-23314.16
-48999	-23319.926
-35676	-23329.242
-23396	-23340.232
-39242	-23346.744
-51972	-23350.438
-48937	-23350.607
-35559	-23346.885
-23396	-23341.27
-39317	-23331.826
-51987	-23323.88
-48932	-23319.07
-35547	-23317.582
-23506	-23320.36
-39404	-23323.002
-52011	-23327.842
-48877	-23333.469
-35436	-23337.922
-23464	-23341.092
-39481	-23338.88
-52053	-23335.027
-48832	-23330.23
-35413	-23324.781
-23577	-23320.316
-39573	-23313.967
-52053	-23309.623
-48789	-23307.389
-35305	-23306.385
-23577	-23307.072
-39645	-23305.49
-52049	-23305.018
-48745	-23305.752
-35194	-23307.297
-23504	-23310.736
-39673	-23312.627
-52060	-23316.537
-48680	-23322.133
-35198	-23328.178
-23647	-23334.559
-39773	-23336.799
-52044	-23337.717
-48641	-23336.91
-35099	-23333.855
-23622	-23329.887
-39851	-23322.387
-52122	-23316.096
-48633	-23312.123
-35026	-23310.66
-23701	-23312.713
-39960	-23314.354
-52149	-23318.312
-48585	-23323.299
-34898	-23327.37
-23578	-23330.025
-40037	-23326.959
-52217	-23321.607
-48582	-23314.414
-34837	-23305.885
-23690	-23298.053
-40094	-23288.676
-52201	-23282.445
-48527	-23279.85
-34783	-23280.273
-23729	-23283.717
-40212	-23285.56
-52271	-23288.176
-48550	-23290.326
-34774	-23290.756
-23816	-23289.906
-40306	-23284.654
-52279	-23279.58
-48490	-23275.818
-34672	-23274.07
-23829	-23275.94
-40387	-23278.395
-52329	-23284.908
-48484	-23294.564
-34554	-23305.61
-23808	-23317.062
-40461	-23323.973
-52316	-23328.77
-48385	-23330.74
-34484	-23329.447
-23807	-23326.209
-40484	-23318.729
-52282	-23312.174
-48351	-23307.871
-34491	-23306.49
-24052	-23309.307
-40564	-23313.004
-52324	-23320.654
-48295	-23331.082
-34304	-23342.41
-23876	-23353.713
-40622	-23360.219
-52334	-23364.533
-48265	-23366.025
-34271	-23364.285
-24012	-23360.396
-40714	-23351.889
-52309	-23343.594
-48189	-23336.523
-34210	-23331.217
-24032	-23328.938
-40711	-23326.541
-52294	-23327.602
-48120	-23331.357
-34077	-23336.58
-24017	-23342.822
-40811	-23345.871
-52330	-23348.672
-48104	-23350.693
-33919	-23351.475
-23897	-23351.791
-40822	-23348.824
-52299	-23346.973
-48034	-23346.625
-33795	-23347.883
-23918	-23351.412
-40958	-23353.61
-52359	-23357.705
-48002	-23362.727
-33722	-23367.334
-23953	-23371.164
-41016	-23370.156
-52362	-23367.68
-47949	-23363.479
-33656	-23357.574
-24037	-23351.08
-41083	-23341.592
-52382	-23333.727
-47917	-23328.018
-33546	-23324.596
-23997	-23324.059
-41149	-23322.94
-52376	-23324.56
-47847	-23328.068
-33184	-23332.56
-23711	-23337.824
-41232	-23340.102
-52392	-23342.867
-47794	-23345.799
-33384	-23348.605
-24132	-23351.748
-41268	-23352.037
-52376	-23353.133
-47775	-23354.629
-33294	-23355.96
-24097	-23357.244
-41347	-23355.05
-52396	-23353.033
-47699	-23351.035
-32720	-23349.11
-23606	-23348.006
-41449	-23344.787
-52403	-23343.707
-47648	-23344.758
-33076	-23347.766
-24172	-23352.973
-41478	-23356.914
-52420	-23362.97
-47622	-23370.41
-33008	-23378.477
-24183	-23387.104
-41549	-23392.842
-52442	-23399.264
-47602	-23405.883
-32968	-23412.283
-24269	-23418.533
-41619	-23421.215
-52476	-23423.717
-47572	-23425.338
-32905	-23425.486
-24361	-23424.209
-41702	-23418.443
-52521	-23412.21
-47579	-23405.645
-32851	-23399.24
-24426	-23393.982
-41761	-23387.572
-52497	-23384.275
-47499	-23384.043
-32697	-23386.59
-24401	-23391.629
-41851	-23395.389
-52551	-23400.656
-47463	-23406.08
-32004	-23410.682
-23764	-23413.857
-41968	-23412.031
-52576	-23408.998
-47434	-23404.686
-32576	-23399.494
-24561	-23394.41
-42016	-23387.283
-52572	-23382.596
-47426	-23380.486
-32490	-23380.957
-24543	-23383.9
-42066	-23385.676
-52588	-23389.064
-47389	-23392.53
-32447	-23394.674
-24663	-23394.623
-42161	-23388.758
-52572	-23380.703
-47265	-23370.377
-32227	-23358.52
-24592	-23346.373
-42250	-23332.305
-52554	-23321.254
-47241	-23313.61
-32097	-23309.514
-24547	-23308.67
-42310	-23307.258
-52604	-23307.84
-47237	-23308.715
-32041	-23308.8
-24589	-23307.664
-42376	-23302.566
-52577	-23298.168
-47152	-23295.28
-31892	-23295.25
-24583	-23299.15
-42406	-23304.457
-52592	-23314.287
-47111	-23326.51
-31792	-23338.52
-24639	-23347.252
-42500	-23347.01
-52577	-23339.473
-47038	-23323.459
-31652	-23299.934
-24611	-23271.467
-42566	-23239.182
-52595	-23211.53
-47029	-23192.49
-31430	-23185.445
-24661	-23191.803
-42694	-23208.02
-52592	-23234.857
-46939	-23266.996
-31567	-23298.566
-24834	-23323.557
-42710	-23334.34
-52626	-23331.777
-46968	-23314.955
-31442	-23285.97
-24825	-23248.969
-42784	-23206.795
-52629	-23169.158
-46899	-23140.836
-31342	-23125.594
-24879	-23124.814
-42864	-23135.123
-52654	-23157.67
-46847	-23187.89
-31277	-23221.215
-24949	-23253.078
-42943	-23277.316
-52648	-23295.531
-46830	-23306.514
-31229	-23310.879
-25024	-23309.975
-43006	-23303.168
-52640	-23296.346
-46796	-23290.76
-31246	-23287.842
-25159	-23288.166
-43109	-23289.492
-52679	-23295.555
-46737	-23305.453
-31137	-23318.645
-25247	-23333.904
-43191	-23347.34
-52657	-23360.984
-46711	-23372.125
-31146	-23378.562
-25312	-23377.85
-43224	-23365.816
-52650	-23345.467
-46626	-23316.775
-31045	-23281.809
-25447	-23243.504
-43280	-23203.666
-52616	-23170.645
-46577	-23148.117
-32121	-23139.082
-29160	-23144.232
-43637	-23161.744
-52668	-23192.68
-46598	-23232.514
-31189	-23276.355
-25970	-23318.625
-43502	-23352.463
-52718	-23378.16
-46564	-23393.467
-30937	-23398.477
-25756	-23394.387
-43516	-23381.404
-52653	-23366.281
-46464	-23351.238
-30830	-23338.6
-25821	-23329.174
-43596	-23320.799
-52662	-23316.516
-46449	-23314.457
-30791	-23313.393
-25858	-23311.707
-43607	-23306.312
-52611	-23300.707
-46370	-23294.596
-30746	-23288.742
-25957	-23283.426
-43684	-23277.064
-52621	-23273.654
-46324	-23272.414
-30641	-23272.957
-25980	-23273.97
-43722	-23272.283
-52579	-23270.709
-46236	-23267.88
-30588	-23263.691
-26096	-23257.719
-43792	-23248.256
-52613	-23239.648
-46239	-23231.941
-30432	-23225.922
-26121	-23221.398
-43924	-23216.18
-52664	-23213.59
-46212	-23212.275
-30344	-23211.666
-26128	-23210.43
-43947	-23205.98
-52596	-23201.965
-46121	-23198.055
-31307	-23195.012
-28987	-23193.055
-44164	-23192.059
-52572	-23196.352
-46041	-23205.328
-30740	-23218.412
-26946	-23233.504
-44164	-23246.42
-52649	-23258.113
-46072	-23265.373
-30386	-23266.525
-26953	-23260.166
-44234	-23245.217
-52626	-23227.494
-46043	-23209.523
-30260	-23195.29
-26637	-23187.408
-44272	-23186.273
-52614	-23195.953
-46019	-23213.82
-30069	-23236.613
-26550	-23258.775
-44294	-23273.441
-52623	-23280.234
-45972	-23276.365
-29979	-23262.832
-26671	-23242.328
-44376	-23218.559
-52598	-23201.643
-45889	-23196.7
-29879	-23207.732
-26704	-23234.191
-44429	-23270.55
-52566	-23313.17
-45819	-23351.77
-29763	-23376.826
-26784	-23379.756
-44478	-23355.188
-52575	-23308.723
-45772	-23247.521
-29758	-23184.88
-26906	-23135.777
-44591	-23114.225
-52631	-23136.238
-45741	-23207.344
-29701	-23326.053
-26984	-23481.316
-44606	-23654.04
-52534	-23825.78
-45679	-23972.777
-30222	-24075.27
-28816	-24118.504
-44716	-24096.648
-52528	-24017.783
-45609	-23893.959
-30319	-23744.22
-27943	-23589.064
-44857	-23447.053
-52624	-23336.98
-45652	-23266.566
-29479	-23237.064
-27183	-23241.514
-44821	-23267.518
-52584	-23305.645
-45569	-23342.836
-29396	-23370.277
-27286	-23382.174
-44889	-23376.799
-52567	-23361.332
-45539	-23340.75
-29394	-23321.479
-27419	-23307.164
-44979	-23298.47
-52538	-23298.383
-45443	-23303.271
-29196	-23309.809
-27400	-23313.46
-45057	-23310.732
-52583	-23305.123
-45449	-23297.676
-29180	-23291.975
-27572	-23289.975
-45121	-23292.215
-52559	-23301.951
-45332	-23315.625
-29062	-23329.113
-27640	-23335.92
-45182	-23330.246
-52502	-23313.486
-45252	-23286.32
-28974	-23254.566
-27746	-23225.68
-45229	-23208.764
-52521	-23217.043
-45220	-23256.527
-28852	-23329.715
-27781	-23431.486
-45261	-23550.87
-52464	-23677.139
-45207	-23792.94
-29034	-23883.176
-28537	-23934.459
-45455	-23939.697
-52631	-23903.105
-45376	-23831.15
-30182	-23736.725
-29373	-23633.957
-46111	-23536.875
-53297	-23460.863
-45994	-23411.947
-29446	-23391.756
-28864	-23394.438
-46589	-23410.305
-53669	-23432.389
-46307	-23449.854
-29679	-23456.125
-29159	-23446.6
-46903	-23421.205
-53873	-23387.998
-46456	-23352.7
-29699	-23322.898
-29354	-23302.604
-47114	-23293.305
-54000	-23297.773
-46542	-23311.32
-29739	-23329.121
-29551	-23343.809
-47304	-23349.508
-54095	-23347.092
-46574	-23335.781
-29816	-23319.047
-29729	-23299.834
-47411	-23281.975
-54179	-23272.68
-46605	-23272.725
-29732	-23282.025
-29828	-23295.912
-47534	-23308.74
-54212	-23319.043
-46569	-23322.197
-29712	-23317.766
-29966	-23306.082
-47612	-23290.895
-54214	-23282.363
-46537	-23286.764
-29665	-23310.846
-30068	-23356.193
-47742	-23421.002
-54297	-23503.314
-46531	-23593.172
-30746	-23679.521
-32386	-23748.754
-47822	-23790.35
-54248	-23799.646
-46489	-23774.57
-29959	-23718.936
-30599	-23638.795
-47899	-23544.1
-54280	-23449.88
-46491	-23366.275
-29601	-23302.312
-30436	-23260.7
-47924	-23240.695
-54226	-23241.652
-46340	-23256.041
-29388	-23276.828
-30451	-23294.979
-47883	-23304.277
-54040	-23305.082
-46082	-23296.463
-28981	-23281.725
-30211	-23262.963
-47581	-23243.715
-53677	-23230.555
-45732	-23224.34
-28824	-23225.668
-30147	-23230.916
-47344	-23236.414
-53307	-23241.99
-45313	-23243.96
-28486	-23241.568
-29946	-23233.076
-47012	-23219.271
-52927	-23205.654
-44873	-23193.678
-28013	-23185.94
-29687	-23181.227
-46737	-23178.203
-52597	-23177.807
-44556	-23176.254
-27771	-23171.514
-29688	-23159.91
-46652	-23140.908
-52447	-23119.57
-44371	-23098.943
-27682	-23085.303
-29654	-23082.94
-46547	-23097.047
-52377	-23134.654
-44250	-23196.281
-28161	-23281.059
-30846	-23382.775
-46543	-23494.775
-52227	-23611.23
-44106	-23723.652
-28836	-23825.26
-31479	-23908.979
-46652	-23972.137
-52248	-24017.61
-44082	-24047.2
-27910	-24066.078
-30216	-24077.992
-46706	-24088.268
-52239	-24104.467
-44012	-24128.875
-27359	-24163.543
-30012	-24205.676
-46729	-24252.51
-52189	-24303.2
-43929	-24352.434
-27183	-24396.898
-30060	-24431.229
-46771	-24453.416
-52188	-24466.254
-43931	-24470.432
-27280	-24469.893
-30217	-24466.64
-46798	-24464.906
-52127	-24471.252
-43807	-24486.908
-27166	-24512.988
-30341	-24545.342
-46874	-24579.922
-52120	-24614.098
-43762	-24640.885
-27070	-24656.018
-30395	-24654.033
-46956	-24634.648
-52108	-24603.79
-43670	-24566.87
-26971	-24533.6
-30452	-24511.72
-46982	-24510.562
-52072	-24539.643
-43631	-24600.625
-26977	-24692.02
-30596	-24804.139
-47028	-24925.365
-52031	-25044.139
-43534	-25144.852
-27154	-25215.611
-30982	-25245.834
-47014	-25232.848
-52001	-25182.191
-43499	-25102.01
-27611	-25005.55
-31217	-24904.967
-47219	-24813.52
-52081	-24743.898
-43503	-24700.473
-26811	-24683.896
-30901	-24686.447
-47233	-24699.346
-51991	-24714.52
-43415	-24720.734
-26882	-24711.137
-31068	-24679.627
-47306	-24626.982
-52006	-24560.287
-43347	-24485.514
-26594	-24411.387
-31047	-24342.336
-47301	-24282.982
-51962	-24236.924
-43284	-24200.785
-26688	-24170.379
-31212	-24136.938
-47365	-24094.744
-51906	-24042.008
-43189	-23976.117
-26504	-23899.445
-31274	-23813.752
-47490	-23725.414
-51965	-23643.342
-43165	-23571.791
-26511	-23514.836
-31420	-23470.404
-47484	-23436.773
-51878	-23412.38
-43093	-23391.521
-26482	-23371.055
-31502	-23346.328
-47531	-23318.33
-51863	-23292.748
-43047	-23273.883
-26492	-23268.861
-31696	-23280.887
-47657	-23314.213
-51844	-23371.82
-43001	-23449.426
-25884	-23541.24
-31012	-23635.045
-47622	-23720.363
-51777	-23789.03
-42877	-23831.676
-27039	-23844.006
-32147	-23822.756
-47740	-23771.586
-51808	-23699.572
-42857	-23614.88
-26409	-23528.17
-31949	-23445.764
-47780	-23375.36
-51789	-23323.53
-42772	-23290.389
-26175	-23275.312
-31983	-23272.139
-47840	-23277.174
-51758	-23288.322
-42740	-23300.787
-26249	-23312.996
-32036	-23321.121
-47866	-23325.951
-51714	-23330.686
-42628	-23335.117
-26056	-23340.988
-32085	-23345.81
-47994	-23350.115
-51707	-23355.607
-42587	-23360.34
-25991	-23364.629
-32157	-23365.45
-48039	-23363.895
-51715	-23363.01
-42522	-23362.57
-25848	-23364.326
-32148	-23365.8
-48076	-23367.729
-51667	-23371.633
-42441	-23375.28
-25732	-23378.55
-32130	-23377.836
-48112	-23374.152
-51669	-23370.834
-42405	-23368.762
-25638	-23371.621
-32137	-23379.217
-48155	-23394.594
-51576	-23420.922
-42285	-23456.273
-24783	-23499.236
-31132	-23542.852
-48233	-23582.564
-51591	-23615.092
-42258	-23635.586
-25863	-23642.46
-32424	-23632.564
-48305	-23608.818
-51581	-23577.453
-42222	-23542.654
-25304	-23510.889
-32278	-23483.748
-48361	-23465.064
-51560	-23457.771
-42159	-23459.285
-25298	-23467.54
-32346	-23475.5
-48402	-23480.37
-51476	-23481.53
-42071	-23476.762
-25128	-23468.025
-32372	-23454.605
-48428	-23440.977
-51454	-23432.57
-41980	-23430.713
-24899	-23437.365
-32362	-23448.326
-48481	-23462.018
-51410	-23476.857
-41914	-23487.982
-24843	-23493.822
-32404	-23490.152
-48547	-23479.14
-51406	-23465.867
-41860	-23453.557
-24951	-23447.78
-32664	-23448.875
-48587	-23459.447
-51371	-23480.385
-41794	-23506.846
-24840	-23534.26
-32656	-23552.994
-48682	-23558.441
-51353	-23548.955
-41704	-23523.045
-24636	-23484.986
-32771	-23437.822
-48719	-23391.15
-51326	-23355.818
-41649	-23338.455
-23564	-23345.166
-31412	-23373.559
-48709	-23421.012
-51279	-23482.342
-41579	-23547.545
-24997	-23607.904
-33046	-23651.932
-48846	-23675.049
-51274	-23677.201
-41480	-23659.938
-24411	-23629.885
-32968	-23591.03
-48911	-23552.156
-51270	-23521.477
-41420	-23502.068
-24341	-23496.16
-32954	-23498.684
-48975	-23507.2
-51261	-23519.008
-41405	-23528.955
-24346	-23535.488
-33047	-23534.404
-48999	-23528.104
-51218	-23520.752
-41249	-23514.219
-24113	-23512.037
-33106	-23511.875
-49021	-23514.504
-51161	-23519.727
-41198	-23523.814
-24134	-23525.236
-33259	-23518.904
-49086	-23506.129
-51101	-23490.574
-41120	-23474.537
-24122	-23463.281
-33348	-23456.81
-49152	-23458.453
-51078	-23469.377
-41070	-23485.277
-24058	-23501.977
-33482	-23509.309
-49185	-23502.557
-51094	-23479.148
-41082	-23437.047
-24235	-23380.4
-33579	-23312.377
-49212	-23243.91
-51071	-23187.057
-40939	-23150.248
-23376	-23141.408
-32722	-23159.27
-49227	-23202.486
-51022	-23265.768
-40924	-23338.18
-24524	-23409.658
-33864	-23466.717
-49330	-23503.48
-50956	-23518.357
-40766	-23511.68
-23904	-23489.691
-33848	-23456.193
-49402	-23420.824
-50904	-23392.121
-40662	-23373.482
-23859	-23367.406
-33941	-23368.4
-49434	-23374.062
-50905	-23380.957
-40642	-23383.658
-23931	-23380.6
-34020	-23367.69
-49471	-23348.541
-50895	-23328.14
-40571	-23309.73
-23841	-23298.098
-34093	-23291.713
-49520	-23292.383
-50851	-23299.75
-40459	-23309.803
-23829	-23320.443
-34178	-23325.586
-49531	-23326.18
-50776	-23324.889
-40354	-23323.547
-23771	-23326.98
-34311	-23334.676
-49602	-23349.908
-50771	-23372.9
-40381	-23398.71
-23824	-23422.146
-34357	-23432.01
-49611	-23423.191
-50756	-23392.479
-40256	-23338.275
-23739	-23265.701
-34458	-23179.355
-49660	-23092.613
-50670	-23019.564
-40121	-22970.857
-23214	-22956.072
-34099	-22974.434
-49704	-23025.201
-50667	-23101.846
-40131	-23191.355
-24003	-23281.441
-34686	-23355.984
-49743	-23407.303
-50617	-23432.15
-40022	-23430.29
-23673	-23408.303
-34731	-23371.012
-49833	-23330.113
-50609	-23295.814
-39942	-23273.453
-23547	-23266.812
-34852	-23270.998
-49871	-23283.83
-50555	-23300.785
-39857	-23315.15
-23617	-23323.783
-34871	-23320.99
-49882	-23309.504
-50533	-23293.535
-39772	-23276.31
-23456	-23263.246
-34964	-23253.52
-49923	-23250.38
-50477	-23254.162
-39662	-23261.428
-23438	-23270.309
-35059	-23274.146
-49944	-23273.635
-50422	-23270.348
-39642	-23265.586
-23500	-23263.947
-35188	-23265.162
-50075	-23273.951
-50417	-23292.0
-39499	-23316.309
-23554	-23343.623
-35314	-23364.07
-50109	-23373.596
-50391	-23368.377
-39436	-23345.096
-23440	-23306.229
-35387	-23252.81
-50117	-23195.023
-50319	-23143.559
-39301	-23106.64
-23415	-23092.611
-35562	-23100.912
-50121	-23133.135
-50256	-23185.355
-39269	-23247.797
-23776	-23311.43
-35699	-23362.717
-50207	-23396.305
-50242	-23409.387
-39178	-23401.2
-23487	-23377.03
-35730	-23339.883
-50243	-23300.455
-50201	-23267.701
-39092	-23246.475
-23516	-23240.95
-35875	-23246.94
-50294	-23263.838
-50204	-23287.777
-39033	-23312.217
-23596	-23333.393
-36018	-23344.043
-50293	-23345.506
-50147	-23339.68
-38964	-23327.986
-23579	-23314.771
-36089	-23299.24
-50381	-23286.404
-50134	-23278.53
-38892	-23274.66
-23714	-23275.23
-36317	-23275.178
-50439	-23276.242
-50116	-23279.006
-38817	-23282.67
-23678	-23288.975
-36409	-23294.707
-50506	-23302.793
-50086	-23313.64
-38722	-23324.69
-23647	-23334.592
-36545	-23336.473
-50528	-23330.51
-50051	-23315.986
-38631	-23291.904
-23591	-23261.344
-36558	-23224.041
-50524	-23187.889
-49981	-23159.238
-38541	-23142.02
-23534	-23140.691
-36603	-23152.152
-50609	-23177.896
-49966	-23215.113
-38499	-23256.967
-23903	-23298.322
-36931	-23329.695
-50698	-23349.71
-49962	-23357.469
-38408	-23352.56
-23676	-23338.791
-36943	-23316.412
-50742	-23293.074
-49951	-23273.965
-38334	-23261.252
-23613	-23257.414
-36978	-23258.05
-50741	-23264.182
-49895	-23273.717
-38209	-23282.562
-23571	-23289.158
-37070	-23287.857
-50765	-23281.281
-49834	-23271.057
-38116	-23258.05
-23609	-23245.512
-37152	-23231.754
-50769	-23221.623
-49762	-23216.955
-38027	-23217.117
-23562	-23222.785
-37224	-23229.11
-50792	-23238.05
-49732	-23249.262
-37943	-23260.838
-23653	-23272.998
-37387	-23281.168
-50868	-23287.818
-49664	-23293.164
-37833	-23295.752
-23577	-23296.217
-37406	-23290.428
-50854	-23281.738
-49612	-23271.633
-37745	-23260.44
-23467	-23251.02
-37359	-23241.24
-50917	-23235.992
-49622	-23237.209
-37683	-23244.467
-23459	-23258.229
-37478	-23272.926
-50953	-23289.516
-49562	-23306.195
-37602	-23319.34
-23624	-23328.096
-37692	-23327.678
-51019	-23321.43
-49559	-23311.547
-37548	-23299.43
-23568	-23288.707
-37722	-23277.828
-51057	-23271.795
-49526	-23272.025
-37464	-23277.322
-23594	-23287.502
-37777	-23296.697
-51077	-23306.13
-49454	-23314.666
-37325	-23320.336
-23418	-23324.014
-37825	-23322.342
-51131	-23319.92
-49447	-23318.924
-37277	-23320.03
-23550	-23325.283
-37939	-23331.016
-51165	-23340.08
-49348	-23352.014
-37155	-23364.49
-23516	-23377.102
-38021	-23384.707
-51188	-23390.02
-49373	-23393.59
-37089	-23395.111
-23454	-23396.416
-38095	-23394.383
-51187	-23392.918
-49300	-23392.635
-37048	-23392.332
-23579	-23392.229
-38192	-23387.47
-51241	-23380.62
-49265	-23371.994
-36896	-23361.209
-23497	-23350.479
-38252	-23337.662
-51263	-23328.305
-49195	-23325.006
-36777	-23328.53
-23426	-23340.512
-38389	-23356.475
-51278	-23378.32
-49149	-23404.027
-36789	-23429.57
-23616	-23452.807
-38451	-23467.186
-51316	-23474.291
-49139	-23474.111
-36707	-23466.547
-23699	-23454.262
-38556	-23435.79
-51319	-23417.25
-49113	-23401.545
-36557	-23389.684
-23492	-23383.596
-38645	-23379.225
-51371	-23379.154
-49037	-23382.256
-36521	-23385.99
-23634	-23389.623
-38723	-23388.025
-51385	-23384.121
-49011	-23378.42
-36439	-23370.98
-23637	-23363.893
-38834	-23354.65
-51452	-23348.086
-48986	-23345.484
-36342	-23346.5
-23681	-23351.805
-38927	-23356.764
-51431	-23363.771
-48910	-23371.709
-36230	-23378.42
-23691	-23383.596
-39023	-23382.412
-51461	-23378.1
-48841	-23371.102
-36157	-23361.223
-23752	-23350.299
-39066	-23335.637
-51474	-23321.996
-48806	-23310.83
-36085	-23302.336
-23748	-23297.97
-39146	-23294.174
-51484	-23294.473
-48732	-23298.805
-35899	-23305.906
-23658	-23315.951
-39226	-23324.373
-51508	-23334.137
-48697	-23344.781
-35900	-23355.166
-23856	-23365.654
-39381	-23372.045
-51556	-23377.535
-48693	-23382.06
-35822	-23384.635
-23863	-23385.855
-39464	-23381.723
-51579	-23375.91
-48627	-23368.863
-35731	-23360.383
-23854	-23351.947
-39499	-23340.701
-51569	-23331.186
-48574	-23324.484
-35629	-23320.64
-23780	-23320.754
-39600	-23320.934
-51624	-23324.285
-48547	-23330.078
-35534	-23336.527
-23798	-23343.168
-39704	-23345.133
-51649	-23345.38
-48528	-23343.77
-35471	-23339.986
-23759	-23335.586
-39747	-23327.902
-51668	-23321.822
-48486	-23318.557
-35352	-23318.354
-23794	-23322.158
-39778	-23325.824
-51634	-23332.068
-48358	-23339.559
-35267	-23346.13
-23932	-23351.027
-39949	-23349.422
-51701	-23344.494
-48399	-23336.527
-35206	-23325.943
-23903	-23314.947
-39966	-23301.678
-51701	-23291.67
-48326	-23286.53
-35136	-23286.63
-24039	-23292.908
-40080	-23301.088
-51724	-23313.604
-48272	-23328.713
-34949	-23343.932
-23940	-23358.023
-40172	-23365.822
-51762	-23370.045
-48247	-23370.465
-34890	-23367.031
-23997	-23361.283
-40264	-23350.889
-51777	-23340.904
-48187	-23332.615
-34772	-23326.514
-23992	-23323.822
-40371	-23321.059
-51814	-23321.82
-48162	-23325.582
-34661	-23331.262
-23968	-23338.754
-40441	-23343.73
-51824	-23349.35
-48091	-23355.027
-34595	-23359.908
-24077	-23364.244
-40518	-23364.236
-51869	-23363.521
-48093	-23362.072
-34602	-23359.584
-24203	-23357.004
-40609	-23351.217
-51862	-23346.549
-48013	-23343.5
-34444	-23342.086
-24167	-23343.115
-40690	-23342.953
-51891	-23345.014
-48027	-23348.441
-34347	-23351.934
-24166	-23354.979
-40725	-23353.148
-51859	-23349.576
-47909	-23343.953
-34280	-23336.145
-24251	-23327.486
-40789	-23315.637
-51871	-23305.863
-47890	-23299.36
-34362	-23296.838
-24589	-23299.367
-40909	-23303.674
-51897	-23312.986
-47843	-23326.041
-34223	-23340.896
-24567	-23356.344
-40981	-23367.303
-51899	-23376.207
-47786	-23381.979
-34081	-23383.812
-24527	-23382.287
-41039	-23374.629
-51909	-23365.59
-47741	-23356.064
-34011	-23346.816
-24594	-23339.193
-41140	-23330.57
-51947	-23325.197
-47737	-23322.992
-33900	-23323.355
-24556	-23326.227
-41241	-23327.652
-51975	-23330.697
-47670	-23334.41
-33734	-23337.748
-24557	-23340.432
-41354	-23338.715
-52003	-23336.229
-47626	-23332.76
-33577	-23328.223
-24478	-23323.35
-41395	-23315.36
-51962	-23308.738
-47527	-23303.816
-33477	-23300.764
-24584	-23300.234
-41463	-23298.998
-52007	-23300.873
-47497	-23305.244
-33388	-23311.326
-24651	-23318.805
-41561	-23323.736
-51991	-23329.352
-47409	-23334.852
-33211	-23339.457
-24563	-23343.11
-41582	-23342.342
-51959	-23340.97
-47355	-23338.783
-32736	-23335.809
-24121	-23332.572
-41648	-23326.127
-52008	-23320.861
-47347	-23316.879
-33212	-23314.268
-24866	-23313.559
-41792	-23311.586
-52016	-23312.115
-47292	-23314.434
-33141	-23317.695
-24933	-23321.37
-41873	-23321.598
-52004	-23321.602
-47284	-23320.613
-33106	-23318.334
-25034	-23315.096
-41960	-23308.373
-52064	-23302.809
-47227	-23298.863
-32979	-23297.025
-25024	-23297.986
-42025	-23298.86
-52069	-23303.334
-47215	-23310.52
-32814	-23319.412
-25015	-23329.203
-42151	-23335.84
-52112	-23342.514
-47166	-23348.254
-32561	-23352.635
-24878	-23355.65
-42184	-23354.3
-52124	-23352.61
-47126	-23350.248
-32384	-23347.15
-24857	-23343.3
-42288	-23335.588
-52087	-23327.998
-47068	-23320.416
-32277	-23313.305
-24997	-23307.547
-42444	-23301.193
-52157	-23299.273
-47007	-23302.365
-32049	-23310.945
-24867	-23324.89
-42494	-23340.32
-52144	-23359.572
-46930	-23380.135
-32192	-23399.479
-26289	-23414.979
-42679	-23422.23
-52153	-23424.062
-46882	-23420.02
-32266	-23410.97
-25565	-23398.658
-42662	-23382.564
-52162	-23368.893
-46861	-23359.156
-31859	-23354.607
-25091	-23355.334
-42679	-23357.713
-52142	-23364.102
-46780	-23372.076
-31764	-23379.668
-25202	-23385.139
-42731	-23384.725
-52106	-23382.215
-46717	-23377.76
-31767	-23372.559
-25327	-23367.662
-42762	-23361.303
-52092	-23357.855
-46664	-23356.504
-31672	-23356.35
-25453	-23355.791
-42867	-23350.584
-52078	-23343.564
-46606	-23333.76
-31604	-23321.729
-25551	-23308.697
-43007	-23293.943
-52121	-23283.74
-46587	-23279.49
-31458	-23282.328
-25521	-23291.795
-43064	-23303.53
-52154	-23318.576
-46494	-23332.635
-31386	-23341.771
-25668	-23342.264
-43163	-23329.158
-52152	-23305.877
-46467	-23273.305
-31341	-23234.723
-25812	-23194.377
-43241	-23154.824
-52147	-23124.97
-46424	-23108.246
-32337	-23106.816
-29165	-23120.232
-43503	-23145.318
-52109	-23182.363
-46333	-23226.32
-31390	-23272.316
-26258	-23315.191
-43425	-23348.605
-52165	-23373.79
-46340	-23389.057
-31168	-23394.945
-26071	-23392.69
-43485	-23382.387
-52184	-23370.85
-46256	-23360.348
-31067	-23353.354
-26181	-23350.906
-43570	-23351.033
-52167	-23357.021
-46219	-23366.66
-30956	-23377.848
-26193	-23387.537
-43590	-23390.834
-52166	-23389.64
-46185	-23382.236
-30872	-23368.783
-26284	-23349.957
-43691	-23325.521
-52158	-23302.174
-46122	-23282.152
-30719	-23268.102
-26300	-23260.938
-43753	-23258.434
-52153	-23263.066
-46111	-23271.617
-30681	-23280.82
-26425	-23286.62
-43857	-23283.87
-52150	-23275.023
-46021	-23259.783
-30715	-23240.688
-26701	-23221.055
-43942	-23203.576
-52139	-23197.0
-46021	-23204.41
-30569	-23227.924
-26648	-23266.27
-44002	-23314.008
-52107	-23369.578
-45909	-23425.467
-31239	-23474.617
-29083	-23509.855
-44186	-23525.373
-52113	-23522.94
-45856	-23502.783
-30989	-23468.143
-27486	-23423.137
-44197	-23371.26
-52183	-23321.447
-45888	-23277.215
-30406	-23241.602
-26965	-23215.045
-44217	-23195.324
-52154	-23185.164
-45781	-23182.393
-30214	-23185.764
-26949	-23193.117
-44281	-23201.26
-52159	-23212.734
-45741	-23225.557
-30158	-23238.375
-27043	-23248.475
-44337	-23252.016
-52137	-23251.36
-45699	-23245.23
-30091	-23234.746
-27164	-23221.258
-44426	-23206.193
-52121	-23197.121
-45611	-23196.674
-29959	-23207.168
-27189	-23227.328
-44466	-23252.377
-52120	-23280.615
-45532	-23304.371
-29755	-23317.1
-27216	-23312.521
-44528	-23286.842
-52086	-23246.143
-45508	-23196.693
-29742	-23149.754
-27375	-23117.324
-44606	-23110.256
-52114	-23141.94
-45442	-23215.8
-29632	-23329.637
-27401	-23472.527
-44651	-23626.895
-52081	-23776.816
-45371	-23901.385
-29837	-23983.783
-28288	-24011.607
-44822	-23980.287
-52082	-23898.775
-45359	-23778.914
-29671	-23638.959
-27823	-23497.607
-44906	-23371.455
-52107	-23277.664
-45332	-23222.41
-29501	-23205.848
-27809	-23220.176
-45041	-23252.629
-52238	-23293.947
-45473	-23331.395
-29599	-23356.79
-28087	-23364.855
-45326	-23354.61
-52536	-23334.094
-45796	-23309.05
-30512	-23286.566
-30066	-23270.447
-45951	-23262.006
-53004	-23264.014
-46156	-23272.49
-30302	-23283.346
-29114	-23290.883
-46362	-23290.604
-53366	-23285.39
-46417	-23276.002
-30247	-23266.473
-29179	-23259.662
-46519	-23257.586
-53479	-23265.396
-46471	-23281.21
-30187	-23302.176
-29340	-23321.787
-46716	-23333.285
-53556	-23336.14
-46487	-23327.988
-30171	-23311.514
-29454	-23290.773
-46855	-23272.533
-53587	-23269.277
-46478	-23287.812
-30131	-23333.432
-29596	-23404.754
-46869	-23495.43
-53563	-23599.328
-46420	-23702.441
-30732	-23791.357
-31215	-23851.967
-46987	-23874.85
-53531	-23859.504
-46377	-23807.54
-30161	-23727.162
-29903	-23628.383
-47084	-23522.998
-53588	-23426.912
-46337	-23348.973
-29908	-23295.51
-29882	-23266.027
-47109	-23256.238
-53526	-23263.43
-46241	-23278.943
-29805	-23296.031
-29992	-23307.375
-47139	-23308.697
-53474	-23303.072
-46127	-23291.414
-29642	-23277.74
-29949	-23264.082
-47028	-23252.373
-53249	-23247.506
-45823	-23248.3
-29386	-23253.555
-29824	-23258.908
-46772	-23260.3
-52901	-23258.693
-45440	-23251.764
-28992	-23240.277
-29685	-23223.877
-46483	-23203.879
-52559	-23186.158
-45056	-23171.893
-28647	-23163.086
-29524	-23158.232
-46333	-23155.654
-52344	-23157.133
-44817	-23159.787
-28469	-23162.695
-29506	-23163.258
-46211	-23160.773
-52181	-23159.564
-44625	-23160.371
-28287	-23165.908
-29527	-23176.037
-46162	-23190.924
-52039	-23213.459
-44480	-23240.867
-29032	-23270.617
-31106	-23297.03
-46159	-23315.709
-51993	-23325.13
-44385	-23322.393
-28519	-23307.166
-29918	-23278.787
-46250	-23239.824
-51975	-23198.652
-44303	-23161.094
-27981	-23135.365
-29692	-23127.07
-46232	-23141.857
-51967	-23187.166
-44234	-23263.43
-27879	-23369.523
-29806	-23498.389
-46297	-23641.414
-51905	-23791.625
-44184	-23936.96
-27744	-24067.633
-29763	-24173.111
-46346	-24247.275
-51896	-24291.607
-44080	-24307.463
-27844	-24301.602
-30025	-24280.701
-46410	-24254.174
-51873	-24234.402
-44046	-24227.633
-27680	-24238.549
-30149	-24265.209
-46499	-24303.516
-51868	-24349.926
-43987	-24395.264
-27741	-24432.402
-30239	-24453.332
-46559	-24454.99
-51894	-24441.625
-43957	-24417.197
-27681	-24390.355
-30371	-24368.236
-46586	-24359.307
-51846	-24372.934
-43884	-24410.744
-27486	-24471.834
-30366	-24547.922
-46641	-24629.371
-51812	-24708.031
-43787	-24771.986
-27938	-24813.25
-31236	-24824.691
-46694	-24805.719
-51784	-24762.488
-43776	-24701.852
-27877	-24634.062
-30949	-24566.781
-46811	-24508.094
-51819	-24466.363
-43744	-24442.793
-27472	-24436.873
-30829	-24442.297
-46866	-24453.23
-51792	-24466.469
-43703	-24475.777
-27344	-24478.523
-30888	-24470.916
-46907	-24453.281
-51773	-24429.975
-43618	-24401.906
-27241	-24371.441
-31003	-24336.92
-46964	-24297.906
-51733	-24255.963
-43547	-24208.479
-27245	-24155.209
-31075	-24093.725
-47021	-24025.373
-51735	-23955.621
-43464	-23886.94
-27089	-23823.836
-31153	-23766.84
-47065	-23717.453
-51671	-23677.959
-43412	-23644.854
-27018	-23615.42
-31253	-23583.215
-47089	-23545.236
-51641	-23502.848
-43351	-23456.178
-27129	-23409.844
-31424	-23367.328
-47158	-23335.705
-51603	-23323.947
-43302	-23335.242
-27087	-23371.441
-31524	-23427.125
-47240	-23495.793
-51606	-23570.45
-43260	-23638.92
-27089	-23691.55
-31622	-23717.695
-47187	-23713.31
-51493	-23680.99
-43154	-23624.385
-27475	-23552.371
-31997	-23472.62
-47320	-23395.7
-51519	-23332.693
-43096	-23288.041
-26891	-23264.479
-31813	-23257.684
-47331	-23263.428
-51524	-23278.066
-43068	-23294.262
-26505	-23307.87
-31341	-23313.363
-47352	-23310.518
-51422	-23303.568
-42981	-23294.506
-27322	-23287.62
-32279	-23283.531
-47527	-23284.52
-51489	-23292.883
-42911	-23306.523
-26586	-23323.957
-32039	-23339.748
-47533	-23352.104
-51434	-23362.154
-42802	-23368.71
-26550	-23373.764
-32139	-23376.404
-47606	-23379.164
-51446	-23385.824
-42795	-23395.58
-26524	-23408.406
-32191	-23419.604
-47669	-23427.438
-51457	-23431.963
-42767	-23430.672
-26471	-23424.545
-32231	-23412.52
-47693	-23398.566
-51406	-23389.2
-42746	-23387.434
-26592	-23397.604
-32330	-23418.691
-47776	-23450.941
-51434	-23493.982
-42677	-23541.979
-25834	-23590.21
-31530	-23629.938
-47797	-23656.605
-51372	-23668.998
-42604	-23665.373
-26757	-23648.162
-32561	-23618.254
-47919	-23581.465
-51379	-23545.602
-42575	-23514.42
-26316	-23492.484
-32456	-23478.703
-47942	-23473.578
-51354	-23477.404
-42491	-23485.81
-25966	-23496.363
-32414	-23502.959
-47992	-23504.424
-51316	-23502.219
-42429	-23495.89
-25898	-23488.314
-32453	-23478.932
-48070	-23470.945
-51302	-23468.264
-42307	-23470.295
-25596	-23477.475
-32454	-23484.977
-48105	-23491.244
-51277	-23495.95
-42302	-23495.94
-25615	-23491.502
-32504	-23480.129
-48191	-23464.688
-51246	-23450.309
-42219	-23439.328
-25481	-23435.92
-32526	-23439.057
-48246	-23450.076
-51217	-23469.625
-42122	-23493.521
-25452	-23518.723
-32617	-23537.738
-48287	-23547.912
-51200	-23549.318
-42061	-23541.045
-25339	-23526.758
-32658	-23507.787
-48337	-23490.613
-51181	-23482.652
-41962	-23486.973
-24327	-23506.611
-31551	-23537.258
-48338	-23575.28
-51114	-23615.936
-41927	-23650.83
-25466	-23673.639
-32909	-23675.795
-48419	-23655.771
-51088	-23616.86
-41834	-23563.066
-25084	-23503.406
-32843	-23444.08
-48494	-23395.379
-51122	-23366.592
-41792	-23360.732
-24866	-23379.229
-32831	-23415.111
-48559	-23462.732
-51075	-23515.55
-41710	-23563.91
-24878	-23601.934
-33026	-23621.828
-48613	-23623.568
-51056	-23610.984
-41656	-23587.256
-24789	-23559.225
-32948	-23529.19
-48644	-23502.861
-50985	-23484.86
-41524	-23474.945
-24634	-23473.488
-33087	-23475.223
-48661	-23479.31
-50941	-23485.96
-41441	-23493.47
-24464	-23503.344
-33092	-23512.98
-48726	-23524.344
-50927	-23539.273
-41396	-23555.543
-24574	-23571.854
-33182	-23581.402
-48755	-23581.688
-50877	-23571.557
-41319	-23548.678
-24541	-23515.426
-33346	-23472.094
-48792	-23425.979
-50910	-23386.033
-41276	-23358.328
-23612	-23349.951
-32513	-23360.312
-48841	-23389.818
-50866	-23436.043
-41244	-23491.188
-24952	-23547.955
-33714	-23594.639
-48971	-23625.793
-50818	-23639.193
-41159	-23633.434
-24441	-23612.654
-33651	-23578.719
-49023	-23539.701
-50822	-23503.68
-41100	-23474.594
-24349	-23456.396
-33709	-23445.69
-49007	-23441.984
-50785	-23443.553
-40999	-23445.826
-24278	-23447.271
-33794	-23442.941
-49102	-23434.617
-50736	-23425.469
-40921	-23416.77
-24331	-23411.916
-33936	-23408.543
-49086	-23408.135
-50671	-23410.842
-40863	-23413.385
-24508	-23414.668
-34012	-23409.57
-49086	-23399.639
-50657	-23387.91
-40795	-23376.467
-24302	-23370.33
-34067	-23369.264
-49153	-23376.836
-50620	-23393.984
-40709	-23416.49
-24186	-23440.03
-34137	-23453.969
-49175	-23453.088
-50572	-23433.682
-40630	-23392.947
-24236	-23334.365
-34287	-23260.61
-49257	-23183.002
-50515	-23114.22
-40552	-23064.102
-23594	-23042.377
-33699	-23049.436
-49271	-23085.953
-50529	-23147.42
-40562	-23223.186
-24507	-23302.701
-34589	-23370.883
-49394	-23420.168
-50544	-23446.555
-40461	-23448.484
-23773	-23430.982
-34111	-23397.375
-49416	-23357.957
-50492	-23322.57
-40389	-23296.814
-24191	-23285.64
-34698	-23285.64
-49459	-23296.066
-50472	-23313.838
-40294	-23332.713
-24009	-23349.398
-34777	-23357.156
-49524	-23356.707
-50466	-23350.217
-40249	-23338.916
-23984	-23326.703
-34847	-23312.031
-49552	-23298.197
-50370	-23286.658
-40116	-23275.89
-23927	-23266.33
-34943	-23253.652
-49594	-23240.28
-50327	-23228.887
-40061	-23220.92
-23889	-23220.338
-34993	-23225.467
-49668	-23238.926
-50353	-23260.574
-40009	-23285.879
-23954	-23310.82
-35167	-23325.473
-49713	-23326.346
-50306	-23311.043
-39946	-23278.006
-23926	-23231.496
-35235	-23174.043
-49751	-23116.484
-50255	-23069.71
-39859	-23041.535
-23897	-23039.303
-35244	-23061.334
-49753	-23107.54
-50229	-23172.945
-39826	-23247.166
-24171	-23320.945
-35469	-23380.92
-49811	-23421.83
-50201	-23441.268
-39742	-23438.67
-24014	-23419.281
-35613	-23385.77
-49891	-23347.895
-50200	-23313.86
-39681	-23288.004
-23965	-23274.36
-35687	-23269.139
-49941	-23272.627
-50185	-23282.543
-39612	-23294.365
-23941	-23306.398
-35741	-23313.17
-49936	-23316.795
-50112	-23319.334
-39502	-23321.31
-23991	-23325.354
-35887	-23328.295
-49945	-23332.338
-50059	-23337.264
-39394	-23340.43
-23841	-23341.465
-35931	-23335.56
-49971	-23325.47
-50017	-23313.73
-39308	-23301.803
-23832	-23293.746
-36082	-23287.99
-50040	-23288.258
-49966	-23295.06
-39213	-23305.139
-23881	-23316.15
-36198	-23319.969
-50091	-23315.475
-49921	-23301.432
-39104	-23276.844
-23801	-23245.418
-36274	-23207.824
-50136	-23172.668
-49921	-23147.074
-38993	-23135.006
-23683	-23140.45
-36321	-23159.096
-50176	-23190.562
-49904	-23230.408
-38936	-23270.473
-23935	-23305.188
-36564	-23325.355
-50266	-23330.895
-49892	-23323.121
-38818	-23304.336
-23752	-23281.14
-36621	-23255.871
-50282	-23237.236
-49877	-23230.504
-38787	-23236.533
-23860	-23255.693
-36723	-23280.68
-50334	-23309.44
-49853	-23337.418
-38754	-23358.799
-23910	-23371.523
-36844	-23370.531
-50442	-23359.7
-49855	-23342.719
-38645	-23322.457
-23862	-23304.1
-36965	-23286.9
-50472	-23275.78
-49809	-23272.1
-38542	-23273.979
-23874	-23280.818
-37059	-23286.482
-50511	-23292.01
-49787	-23297.045
-38462	-23300.35
-23807	-23303.61
-37092	-23303.84
-50529	-23305.188
-49780	-23309.188
-38479	-23315.023
-24024	-23323.227
-37224	-23328.71
-50607	-23333.018
-49718	-23335.615
-38312	-23334.78
-23764	-23331.756
-37113	-23323.424
-50632	-23314.395
-49664	-23307.457
-38234	-23303.703
-23712	-23305.777
-37194	-23310.283
-50620	-23320.1
-49647	-23334.857
-38133	-23351.514
-23809	-23369.008
-37429	-23381.385
-50731	-23390.098
-49654	-23395.223
-38104	-23396.04
-23886	-23394.547
-37522	-23388.096
-50699	-23381.271
-49568	-23376.072
-37994	-23372.518
-23842	-23372.123
-37567	-23370.742
-50751	-23371.045
-49571	-23372.836
-37958	-23374.525
-23928	-23376.541
-37651	-23374.48
-50725	-23371.346
-49472	-23367.777
-37853	-23363.041
-23854	-23358.463
-37717	-23350.326
-50750	-23342.076
-49411	-23334.605
-37769	-23327.473
-23779	-23322.32
-37757	-23315.775
-50777	-23311.582
-49378	-23310.885
-37684	-23313.055
-23798	-23319.088
-37824	-23324.424
-50796	-23331.184
-49338	-23338.594
-37579	-23344.379
-23706	-23348.344
-37853	-23345.627
-50861	-23339.314
-49344	-23330.488
-37507	-23319.592
-23637	-23309.518
-37884	-23298.264
-50854	-23290.855
-49271	-23289.162
-37419	-23292.877
-23619	-23302.84
-37907	-23313.797
-50889	-23327.389
-49249	-23342.088
-37331	-23354.996
-23764	-23365.674
-38052	-23369.416
-50957	-23369.426
-49257	-23367.018
-37285	-23362.83
-23686	-23359.568
-38088	-23354.87
-50991	-23353.227
-49251	-23355.861
-37141	-23361.922
-23585	-23371.975
-38162	-23381.086
-51087	-23391.361
-49199	-23402.17
-36940	-23411.867
-23502	-23420.934
-38204	-23425.072
-51095	-23427.623
-49172	-23429.13
-36855	-23429.12
-23484	-23428.879
-38273	-23424.64
-51172	-23419.955
-49144	-23415.527
-36753	-23411.152
-23477	-23408.432
-38293	-23404.176
-51177	-23402.564
-49079	-23404.66
-36601	-23410.14
-23467	-23419.926
-38416	-23429.258
-51230	-23440.18
-49054	-23451.197
-36514	-23459.547
-23502	-23464.293
-38499	-23460.012
-51311	-23449.473
-49043	-23433.443
-36377	-23412.75
-23497	-23390.76
-38558	-23366.396
-51338	-23346.074
-48982	-23332.717
-36261	-23327.45
-23407	-23331.812
-38590	-23341.17
-51405	-23357.078
-48980	-23377.33
-36177	-23398.352
-23439	-23418.262
-38693	-23430.96
-51401	-23438.549
-48926	-23441.227
-36122	-23439.236
-23551	-23435.092
-38806	-23426.812
-51497	-23419.719
-48951	-23415.55
-36048	-23414.54
-23576	-23417.611
-38908	-23420.127
-51572	-23424.281
-48922	-23428.895
-35936	-23432.086
-23542	-23433.777
-38977	-23429.568
-51608	-23423.08
-48911	-23415.18
-35836	-23406.35
-23516	-23398.533
-39071	-23388.748
-51697	-23381.123
-48919	-23376.217
-35807	-23373.436
-23587	-23373.271
-39150	-23371.244
-51747	-23370.209
-48879	-23369.85
-35497	-23369.387
-22991	-23369.514
-39051	-23366.164
-51784	-23362.805
-48874	-23359.695
-35977	-23356.291
-24824	-23353.207
-39708	-23346.822
-52086	-23340.482
-49012	-23334.43
-35901	-23328.338
-24399	-23323.3
-39686	-23316.035
-52059	-23310.588
-48946	-23307.625
-35648	-23307.129
-23942	-23310.145
-39666	-23312.807
-52053	-23318.361
-48914	-23326.332
-35541	-23335.496
-23859	-23345.729
-39746	-23352.309
-52124	-23357.857
-48875	-23361.836
-35301	-23363.375
-23722	-23362.947
-39811	-23356.775
-52179	-23348.63
-48861	-23339.05
-35205	-23328.385
-23801	-23318.156
-39896	-23305.51
-52204	-23294.8
-48797	-23286.877
-35172	-23281.836
-23994	-23280.465
-40024	-23278.732
-52209	-23279.447
-48741	-23281.676
-35041	-23283.893
-24014	-23285.63
-40118	-23282.32
-52247	-23277.143
-48681	-23270.32
-34846	-23262.309
-23902	-23254.898
-40179	-23245.732
-52237	-23239.643
-48593	-23237.541
-34921	-23239.334
-24182	-23245.18
-40307	-23250.34
-52275	-23256.861
-48600	-23263.12
-34878	-23267.34
-24294	-23269.182
-40441	-23264.898
-52310	-23258.53
-48566	-23251.246
-34846	-23244.096
-24364	-23238.922
-40499	-23232.941
-52302	-23229.924
-48530	-23229.379
-34852	-23229.842
-24533	-23230.627
-40605	-23227.127
-52291	-23222.557
-48507	-23217.217
-34856	-23211.982
-24696	-23209.182
-40744	-23207.3
-52314	-23211.498
-48421	-23222.416
-34762	-23239.06
-24698	-23259.898
-40836	-23278.398
-52301	-23294.559
-48384	-23305.008
-34699	-23307.166
-24799	-23301.004
-40918	-23284.541
-52262	-23264.795
-48288	-23246.19
-34599	-23233.225
-24776	-23230.266
-41017	-23235.914
-52275	-23253.213
-48267	-23278.76
-34546	-23306.645
-24744	-23330.58
-41083	-23340.508
-52223	-23335.367
-48168	-23313.2
-34475	-23275.762
-24790	-23229.365
-41179	-23179.416
-52237	-23140.07
-48159	-23121.305
-34369	-23130.588
-24814	-23172.238
-41242	-23241.748
-52212	-23336.803
-48076	-23446.982
-34283	-23559.137
-24855	-23660.396
-41316	-23735.752
-52210	-23780.926
-48017	-23792.543
-34184	-23772.154
-24862	-23726.604
-41399	-23662.08
-52229	-23593.28
-48016	-23530.26
-34179	-23480.613
-24996	-23449.139
-41472	-23433.014
-52214	-23433.045
-47889	-23443.586
-33971	-23457.777
-24921	-23469.738
-41604	-23471.611
-52241	-23464.986
-47818	-23450.21
-33869	-23429.742
-24927	-23408.053
-41625	-23386.48
-52162	-23372.732
-47761	-23369.01
-33740	-23375.584
-24942	-23391.275
-41709	-23409.754
-52206	-23431.0
-47736	-23450.709
-33653	-23465.273
-25031	-23472.79
-41797	-23469.344
-52252	-23459.537
-47728	-23444.955
-33526	-23427.943
-24996	-23411.418
-41876	-23394.59
-52221	-23383.08
-47611	-23377.56
-33411	-23377.928
-24975	-23383.9
-41881	-23391.32
-52188	-23402.865
-47605	-23417.002
-33431	-23432.316
-25156	-23447.986
-42018	-23460.1
-52233	-23471.9
-47526	-23482.531
-33372	-23491.477
-25250	-23498.764
-42083	-23501.438
-52229	-23503.709
-47448	-23505.795
-33248	-23508.184
-25290	-23511.762
-42164	-23514.166
-52212	-23519.78
-47418	-23528.283
-32599	-23539.371
-25156	-23552.264
-42283	-23563.037
-52192	-23574.451
-47357	-23585.025
-33102	-23593.61
-25490	-23599.652
-42304	-23600.135
-52219	-23599.176
-47316	-23596.918
-32924	-23593.992
-25394	-23591.19
-42392	-23586.287
-52212	-23583.514
-47274	-23582.59
-32773	-23583.041
-25329	-23584.398
-42404	-23583.059
-52149	-23582.232
-47272	-23580.875
-32661	-23578.555
-25327	-23575.156
-42518	-23568.01
-52178	-23561.477
-47176	-23555.672
-32419	-23551.045
-25213	-23548.027
-42583	-23543.922
-52152	-23542.637
-47087	-23543.371
-32408	-23545.396
-25377	-23547.916
-42629	-23547.33
-52114	-23546.867
-47033	-23545.635
-32261	-23543.268
-25341	-23539.807
-42702	-23532.78
-52155	-23526.812
-47037	-23521.938
-32210	-23518.646
-25481	-23517.271
-42829	-23515.25
-52205	-23516.229
-47039	-23519.54
-32279	-23524.59
-25660	-23530.525
-43051	-23533.852
-52390	-23537.557
-47204	-23540.55
-32759	-23542.158
-27432	-23541.625
-43639	-23536.49
-52869	-23530.531
-47667	-23523.441
-33004	-23515.354
-26719	-23506.47
-44072	-23494.521
-53244	-23483.896
-47973	-23474.484
-33026	-23466.613
-26748	-23460.45
-44433	-23453.516
-53509	-23449.951
-48136	-23449.096
-33127	-23450.662
-26896	-23454.072
-44560	-23456.139
-53582	-23460.12
-48199	-23464.697
-33152	-23469.008
-27074	-23472.092
-44707	-23470.69
-53599	-23468.215
-48214	-23463.814
-33156	-23457.44
-27157	-23449.143
-44834	-23436.945
-53641	-23425.613
-48152	-23415.625
-32976	-23408.182
-27222	-23404.06
-44974	-23401.63
-53697	-23405.256
-48203	-23414.191
-33101	-23427.633
-27428	-23443.912
-45104	-23458.504
-53796	-23472.955
-48204	-23484.227
-33025	-23490.176
-27565	-23488.883
-45172	-23477.184
-53752	-23459.23
-48126	-23435.715
-32956	-23408.938
-27669	-23381.42
-45216	-23353.844
-53742	-23332.9
-48042	-23320.225
-34022	-23316.799
-31153	-23321.861
-45445	-23332.902
-53699	-23351.178
-48012	-23373.092
-33115	-23395.3
-28146	-23414.045
-45354	-23424.307
-53736	-23427.898
-48005	-23423.438
-32877	-23411.385
-27971	-23392.828
-45345	-23367.766
-53624	-23342.654
-47802	-23319.55
-32502	-23300.777
-27784	-23287.217
-45162	-23276.838
-53343	-23272.541
-47439	-23271.818
-32160	-23272.377
-27646	-23271.062
-44898	-23263.389
-53003	-23251.656
-47044	-23234.912
-31726	-23214.332
-27396	-23191.475
-44641	-23167.02
-52667	-23147.734
-46637	-23135.4
-31366	-23131.52
-27252	-23135.29
-44429	-23142.738
-52392	-23154.334
-46377	-23165.318
-31172	-23171.861
-27211	-23170.37
-44287	-23157.537
-52207	-23138.25
-46206	-23115.287
-31087	-23094.41
-27246	-23081.77
-44293	-23082.094
-52156	-23104.664
-46078	-23151.938
-30831	-23224.32
-27194	-23318.088
-44276	-23425.398
-52055	-23542.172
-45991	-23659.156
-30728	-23768.824
-27509	-23864.432
-44346	-23940.707
-52046	-24000.758
-45931	-24045.723
-30748	-24079.48
-27455	-24105.668
-44393	-24126.508
-52001	-24148.7
-45820	-24172.97
-30536	-24199.648
-27475	-24226.951
-44479	-24251.627
-52059	-24276.045
-45872	-24298.754
-30546	-24320.28
-27579	-24340.629
-44562	-24358.982
-52032	-24379.635
-45772	-24401.43
-30443	-24423.188
-27603	-24441.637
-44574	-24452.219
-51994	-24456.033
-45735	-24451.066
-30352	-24438.379
-27709	-24420.066
-44666	-24399.287
-52025	-24385.586
-45706	-24383.586
-30236	-24397.443
-27711	-24427.076
-44681	-24467.914
-51974	-24517.287
-45586	-24565.477
-30135	-24603.375
-27807	-24621.93
-44767	-24614.963
-51977	-24586.617
-45559	-24542.096
-30101	-24492.77
-27917	-24451.887
-44844	-24432.479
-51992	-24450.223
-45521	-24511.035
-29991	-24614.887
-27957	-24752.568
-44831	-24907.383
-51909	-25063.18
-45417	-25198.02
-30046	-25293.605
-28531	-25335.623
-44869	-25317.72
-51843	-25246.795
-45364	-25133.307
-29899	-24994.814
-28191	-24849.81
-44925	-24715.365
-51884	-24609.191
-45330	-24538.025
-29797	-24502.668
-28199	-24495.51
-44971	-24503.775
-51902	-24517.363
-45292	-24522.367
-29713	-24509.494
-28275	-24472.545
-45067	-24410.387
-51950	-24331.336
-45252	-24242.258
-29682	-24152.416
-28392	-24068.254
-45124	-23993.557
-51901	-23933.357
-45207	-23884.898
-29557	-23844.479
-28402	-23805.598
-45144	-23762.229
-51862	-23714.832
-45132	-23661.812
-29493	-23605.64
-28484	-23548.938
-45181	-23495.123
-51894	-23451.86
-45096	-23420.771
-29236	-23402.865
-28562	-23394.818
-45274	-23391.715
-51877	-23392.303
-45039	-23390.994
-29161	-23385.13
-28608	-23371.924
-45384	-23351.12
-51902	-23328.799
-44986	-23307.67
-29219	-23292.197
-28781	-23283.93
-45439	-23283.182
-51884	-23292.678
-44907	-23308.959
-29471	-23328.836
-29833	-23346.69
-45453	-23358.281
-51817	-23364.244
-44861	-23363.277
-29203	-23357.156
-29047	-23347.006
-45562	-23334.969
-51838	-23327.531
-44864	-23325.846
-29021	-23331.416
-29101	-23342.158
-45612	-23355.254
-51851	-23371.38
-44771	-23386.57
-28911	-23399.09
-29162	-23405.998
-45682	-23406.188
-51802	-23403.943
-44729	-23399.746
-28738	-23396.24
-29112	-23393.49
-45716	-23391.64
-51847	-23394.182
-44765	-23399.195
-28964	-23405.955
-29389	-23411.29
-45776	-23412.965
-51832	-23413.459
-44702	-23411.512
-28864	-23408.402
-29400	-23403.672
-45787	-23397.963
-51793	-23395.729
-44617	-23396.447
-28539	-23400.926
-29422	-23406.719
-45896	-23411.97
-51801	-23418.62
-44543	-23424.326
-28503	-23429.084
-29552	-23431.125
-45939	-23430.305
-51751	-23430.95
-44460	-23433.041
-28451	-23438.316
-29679	-23445.447
-46039	-23453.518
-51777	-23464.709
-44463	-23476.23
-29235	-23486.662
-31231	-23492.395
-46057	-23491.947
-51727	-23486.904
-44357	-23477.31
-28596	-23465.08
-30004	-23450.162
-46117	-23434.012
-51772	-23421.498
-44400	-23412.97
-28310	-23409.898
-29979	-23410.432
-46178	-23413.39
-51713	-23420.783
-44358	-23430.129
-28303	-23440.895
-30057	-23450.031
-46242	-23456.227
-51737	-23461.916
-44277	-23465.586
-28135	-23467.748
-30107	-23466.338
-46302	-23460.852
-51712	-23454.422
-44169	-23446.24
-27962	-23437.812
-30120	-23428.002
-46334	-23417.527
-51668	-23410.525
-44100	-23406.705
-27903	-23407.293
-30278	-23409.867
-46374	-23413.043
-51686	-23417.953
-44081	-23421.514
-28011	-23422.64
-30416	-23418.117
-46467	-23407.55
-51657	-23395.068
-44024	-23382.137
-27865	-23373.03
-30473	-23369.432
-46518	-23374.297
-51646	-23392.432
-43981	-23422.844
-27889	-23464.297
-30654	-23510.596
-46561	-23556.1
-51637	-23597.65
-43945	-23628.729
-28376	-23646.195
-31586	-23646.275
-46581	-23629.992
-51576	-23603.29
-43873	-23569.95
-28142	-23536.275
-31016	-23505.234
-46678	-23480.312
-51622	-23465.791
-43886	-23460.012
-27768	-23461.395
-30952	-23464.195
-46736	-23464.764
-51588	-23462.984
-43789	-23456.475
-27546	-23446.682
-30951	-23433.496
-46757	-23420.062
-51531	-23412.445
-43728	-23412.14
-27596	-23421.2
-31115	-23436.668
-46815	-23456.174
-51539	-23478.748
-43702	-23499.305
-27481	-23515.264
-31106	-23522.127
-46890	-23519.469
-51544	-23511.195
-43622	-23498.818
-27412	-23486.355
-31223	-23474.26
-46940	-23464.291
-51532	-23459.24
-43588	-23456.613
-27452	-23454.871
-31402	-23448.988
-46946	-23437.22
-51492	-23421.82
-43551	-23403.451
-27466	-23386.895
-31523	-23375.139
-47004	-23374.133
-51443	-23391.275
-43454	-23428.059
-27404	-23484.867
-31588	-23555.205
-47056	-23632.074
-51485	-23708.586
-43426	-23773.662
-27551	-23819.303
-31896	-23836.95
-47056	-23824.715
-51391	-23786.914
-43356	-23728.527
-27796	-23659.105
-32024	-23586.336
-47136	-23520.137
-51419	-23470.385
-43364	-23440.275
-27476	-23431.352
-31972	-23438.402
-47206	-23456.438
-51432	-23481.262
-43281	-23505.154
-27445	-23523.662
-32076	-23530.977
-47225	-23526.582
-51353	-23514.033
-43168	-23495.0
-27339	-23473.873
-32114	-23451.543
-47259	-23431.24
-51361	-23416.963
-43165	-23408.18
-27344	-23405.459
-32184	-23405.475
-47321	-23407.713
-51317	-23413.74
-43092	-23421.867
-27237	-23432.66
-32253	-23443.164
-47389	-23453.357
-51329	-23464.594
-43014	-23474.46
-27136	-23482.377
-32302	-23484.504
-47394	-23480.766
-51259	-23473.727
-42994	-23463.78
-27174	-23454.45
-32417	-23446.514
-47450	-23444.244
-51226	-23452.941
-42862	-23473.303
-26926	-23506.36
-32447	-23547.54
-47559	-23593.746
-51260	-23642.195
-42899	-23686.117
-26549	-23721.422
-31901	-23741.537
-47484	-23744.93
-51193	-23733.652
-42843	-23709.014
-27311	-23675.695
-32697	-23635.752
-47656	-23594.695
-51227	-23558.785
-42793	-23529.73
-26716	-23509.943
-32505	-23496.535
-47671	-23488.914
-51202	-23487.193
-42751	-23488.123
-26665	-23490.867
-32525	-23491.459
-47685	-23490.176
-51187	-23489.219
-42689	-23487.996
-26577	-23488.22
-32576	-23487.58
-47737	-23487.01
-51147	-23488.4
-42616	-23490.082
-26439	-23492.564
-32584	-23492.545
-47802	-23490.713
-51115	-23489.371
-42561	-23488.154
-26306	-23489.021
-32566	-23490.072
-47824	-23492.71
-51097	-23499.21
-42457	-23508.072
-26212	-23519.45
-32600	-23529.025
-47926	-23536.26
-51102	-23541.842
-42427	-23543.879
-26054	-23543.506
-32608	-23538.514
-47966	-23531.338
-51083	-23525.924
-42333	-23523.264
-25683	-23526.457
-32558	-23533.615
-47994	-23545.975
-51038	-23564.78
-42257	-23587.307
-24695	-23612.762
-31313	-23635.574
-47951	-23653.922
-50967	-23667.686
-42235	-23675.18
-26165	-23677.533
-32847	-23672.775
-48119	-23663.496
-51039	-23653.564
-42171	-23643.926
-25705	-23637.21
-32744	-23631.2
-48096	-23626.883
-50966	-23625.42
-42119	-23624.562
-25490	-23624.344
-32806	-23620.678
-48161	-23614.258
-50949	-23607.232
-42037	-23599.66
-25383	-23594.295
-32809	-23589.592
-48197	-23587.877
-50912	-23591.508
-41942	-23598.938
-25302	-23610.043
-32826	-23619.496
-48240	-23625.998
-50895	-23629.176
-41902	-23626.615
-25304	-23619.484
-32972	-23605.906
-48263	-23589.625
-50864	-23575.615
-41817	-23566.121
-25139	-23565.008
-32981	-23570.15
-48305	-23582.016
-50834	-23599.734
-41761	-23618.107
-25172	-23633.627
-33106	-23638.506
-48316	-23630.8
-50801	-23611.11
-41792	-23579.89
-25241	-23542.42
-33157	-23501.355
-48382	-23464.654
-50784	-23440.246
-41662	-23431.686
-23937	-23442.53
-31854	-23468.422
-48366	-23506.215
-50726	-23551.354
-41652	-23595.832
-25380	-23634.113
-33388	-23657.867
-48512	-23665.64
-50762	-23659.371
-41576	-23640.959
-24891	-23616.543
-33304	-23588.28
-48500	-23562.602
-50714	-23544.709
-41506	-23535.129
-24889	-23534.701
-33434	-23537.732
-48578	-23542.455
-50731	-23547.225
-41457	-23548.678
-24832	-23547.283
-33535	-23540.225
-48613	-23530.688
-50694	-23522.443
-41404	-23516.447
-24668	-23515.07
-33546	-23514.504
-48659	-23514.545
-50628	-23514.31
-41264	-23510.275
-24532	-23502.277
-33552	-23486.893
-48670	-23467.543
-50613	-23449.193
-41193	-23435.266
-24532	-23431.217
-33627	-23436.129
-48735	-23451.422
-50599	-23475.348
-41152	-23500.826
-24569	-23521.215
-33752	-23524.65
-48766	-23505.793
-50561	-23462.479
-41112	-23394.701
-24609	-23309.676
-33822	-23214.06
-48813	-23122.254
-50558	-23048.986
-41051	-23004.666
-23836	-22998.06
-33027	-23027.318
-48792	-23089.416
-50535	-23176.236
-41032	-23273.816
-24819	-23369.402
-34144	-23446.97
-48939	-23499.033
-50531	-23522.957
-40941	-23519.12
-24589	-23494.727
-34179	-23454.97
-48941	-23411.148
-50445	-23373.041
-40864	-23345.473
-24459	-23332.15
-34142	-23328.395
-48932	-23332.17
-50454	-23339.992
-40816	-23346.398
-24537	-23349.904
-34346	-23346.168
-48998	-23338.334
-50409	-23330.473
-40744	-23324.926
-24503	-23325.426
-34385	-23329.213
-49037	-23336.63
-50390	-23345.945
-40671	-23352.402
-24417	-23353.898
-34437	-23344.988
-49066	-23328.037
-50362	-23307.408
-40637	-23287.463
-24486	-23275.63
-34609	-23273.598
-49167	-23286.107
-50349	-23313.684
-40579	-23350.766
-24406	-23390.75
-34650	-23420.084
-49167	-23430.82
-50327	-23416.809
-40516	-23374.184
-24451	-23306.748
-34744	-23218.92
-49209	-23124.814
-50265	-23039.986
-40446	-22977.361
-23999	-22949.088
-34380	-22956.77
-49207	-23001.213
-50221	-23076.344
-40391	-23168.973
-24432	-23265.863
-34899	-23349.193
-49272	-23409.504
-50227	-23441.621
-40324	-23444.086
-24236	-23423.225
-34931	-23384.277
-49317	-23340.088
-50231	-23302.135
-40303	-23277.305
-24363	-23270.844
-35082	-23278.678
-49379	-23298.625
-50196	-23325.229
-40257	-23350.256
-24119	-23369.012
-34826	-23373.96
-49370	-23366.312
-50162	-23349.178
-40224	-23325.607
-24564	-23301.773
-35231	-23278.385
-49417	-23260.467
-50162	-23249.98
-40138	-23245.084
-24311	-23245.068
-35267	-23243.807
-49446	-23241.73
-50087	-23239.436
-39996	-23236.96
-24099	-23237.9
-35342	-23240.967
-49504	-23250.287
-50067	-23267.188
-39976	-23288.861
-24219	-23312.828
-35398	-23329.928
-49546	-23336.705
-50075	-23329.467
-39875	-23304.922
-24165	-23265.408
-35513	-23211.625
-49552	-23153.51
-50006	-23101.258
-39780	-23063.197
-24114	-23048.31
-35572	-23056.885
-49523	-23091.47
-49987	-23148.686
-39767	-23219.031
-24177	-23293.553
-35695	-23357.883
-49657	-23405.416
-49977	-23431.459
-39666	-23433.584
-24092	-23415.855
-35755	-23380.648
-49696	-23338.684
-49955	-23299.541
-39600	-23269.57
-24173	-23254.922
-35899	-23253.29
-49696	-23265.502
-49933	-23288.129
-39524	-23314.486
-24081	-23340.164
-35936	-23356.568
-49745	-23363.537
-49886	-23361.447
-39473	-23350.992
-24184	-23336.732
-36020	-23318.771
-49741	-23303.396
-49863	-23294.203
-39420	-23291.518
-24268	-23296.58
-36223	-23304.258
-49782	-23315.17
-49781	-23327.938
-39324	-23339.703
-24167	-23350.623
-36269	-23356.336
-49836	-23359.705
-49785	-23361.97
-39300	-23362.592
-24286	-23363.074
-36384	-23359.365
-49826	-23353.617
-49741	-23345.78
-39214	-23334.229
-24214	-23320.117
-36459	-23300.018
-49833	-23277.975
-49689	-23256.705
-39119	-23237.602
-24086	-23224.564
-36427	-23215.637
-49841	-23215.26
-49659	-23224.625
-39092	-23241.67
-24211	-23265.906
-36608	-23290.908
-49951	-23316.412
-49689	-23340.217
-38977	-23358.824
-24199	-23371.734
-36693	-23374.16
-49942	-23369.191
-49611	-23358.621
-38903	-23343.451
-24162	-23327.496
-36789	-23309.607
-49981	-23295.291
-49591	-23287.379
-38846	-23286.32
-24121	-23293.904
-36843	-23305.621
-50033	-23322.885
-49584	-23343.877
-38777	-23364.812
-24131	-23384.02
-36921	-23394.951
-50052	-23398.822
-49561	-23395.475
-38696	-23384.475
-24057	-23368.842
-36919	-23347.277
-50087	-23325.895
-49532	-23308.328
-38645	-23296.121
-24171	-23292.035
-37119	-23292.408
-50137	-23299.281
-49516	-23311.104
-38592	-23324.25
-24105	-23337.207
-37117	-23343.73
-50128	-23345.432
-49446	-23342.46
-38504	-23334.684
-24148	-23325.078
-37218	-23311.932
-50179	-23300.621
