EEG_CH1_RAW	EEG_CH1_BP_0p5_20
-5661	1.373987
-6515	3.6722827
-6731	6.70487
-5735	9.903078
-5611	12.9462385
-6315	15.62298
-6944	17.718843
-6656	18.977898
-5834	19.32131
-5634	19.091951
-6272	18.947437
-6974	19.55741
-6643	21.277994
-5746	24.234642
-5514	28.469685
-6140	33.83324
-6836	39.822277
-6561	45.527092
-5699	50.009212
-5456	52.762524
-6058	53.83069
-6761	53.70268
-6490	53.090706
-5641	52.965866
-5425	54.54387
-6040	58.905636
-6727	66.52031
-6461	76.900795
-5627	88.80009
-5397	100.6566
-6021	110.909485
-6703	118.23692
-6469	121.81739
-5643	121.7757
-5463	119.48916
-6072	117.267525
-6758	117.69256
-6466	122.80518
-5624	133.69614
-5420	150.31326
-6051	171.27304
-6714	193.90822
-6457	214.71912
-5624	230.37799
-5409	238.84332
-6056	239.96693
-6750	235.54283
-6492	228.90028
-5616	224.34367
-5399	226.34723
-6026	238.30421
-6699	261.35483
-6446	293.7406
-5625	331.1529
-5418	367.82794
-6032	397.84543
-6733	416.50244
-6441	421.4998
-5621	413.97238
-5435	398.70685
-6056	383.15683
-6749	375.58875
-6482	382.8533
-5669	408.6527
-5435	452.46906
-6039	509.24442
-6661	570.07574
-6376	624.0464
-5591	661.0389
-5374	674.6149
-5972	663.98883
-6649	634.61786
-6410	597.26874
-5584	565.9311
-5352	554.74164
-5928	574.27246
-6581	628.2569
-6325	711.7474
-5538	811.603
-5346	909.1322
-5937	984.1643
-6573	1019.8741
-6301	1007.369
-5512	949.16156
-5321	860.2528
-5916	765.9981
-6548	697.0563
-6311	682.4027
-5555	742.01013
-5325	880.54156
-5907	1083.299
-6555	1315.6339
-6299	1526.4806
-5516	1655.9369
-5294	1645.4119
-5881	1448.2528
-6532	1038.9347
-6276	419.12866
-5487	-380.37738
-5256	-1302.7002
-5826	-2272.707
-6504	-3208.2104
-6303	-4032.415
-5513	-4685.0786
-5273	-5130.6367
-5891	-5362.207
-6553	-5400.8276
-6226	-5290.0522
-5456	-5086.7695
-5325	-4850.5
-5888	-4633.442
-6549	-4472.8403
-6339	-4386.9224
-5573	-4374.524
-5374	-4418.308
-5956	-4490.951
-6577	-4562.63
-6326	-4608.0513
-5571	-4611.3755
-5368	-4568.4443
-5939	-4486.3955
-6554	-4380.945
-6303	-4272.0327
-5549	-4178.7344
-5392	-4114.8076
-5966	-4086.1233
-6647	-4090.2097
-6452	-4117.782
-5726	-4155.3955
-5453	-4188.745
-5989	-4206.0225
-6581	-4200.521
-6328	-4171.7993
-5579	-4125.0347
-5338	-4069.0679
-5908	-4013.9841
-6540	-3968.7537
-6301	-3939.3657
-5552	-3927.5789
-5325	-3930.717
-5846	-3942.753
-6513	-3956.1592
-6287	-3963.9915
-5532	-3961.3604
-5362	-3946.184
-5911	-3919.4778
-6526	-3884.9512
-6327	-3848.0178
-5607	-3814.2837
-5417	-3788.0518
-5923	-3771.5125
-6576	-3764.5903
-6394	-3765.386
-5658	-3770.7224
-5484	-3776.829
-6004	-3780.315
-6486	-3779.0076
-6289	-3772.3286
-5736	-3761.036
-5542	-3746.696
-6042	-3731.074
-6634	-3715.7473
-6448	-3701.8606
-5719	-3689.8115
-5477	-3679.1067
-6027	-3668.6807
-6633	-3657.4556
-6421	-3644.838
-5706	-3630.7654
-5497	-3615.5457
-5992	-3599.7876
-6630	-3584.29
-6416	-3569.9795
-5701	-3557.496
-5511	-3546.897
-6022	-3537.7168
-6624	-3529.3079
-6423	-3521.1963
-5701	-3513.1494
-5506	-3505.0864
-6021	-3497.1492
-6602	-3489.7886
-6429	-3483.7014
-5744	-3479.5015
-5569	-3477.2952
-6093	-3476.6543
-6717	-3476.7893
-6481	-3476.8767
-5764	-3476.0784
-5582	-3473.5789
-6101	-3468.8237
-6687	-3461.7969
-6484	-3453.1326
-5798	-3443.8337
-5582	-3434.8696
-6071	-3426.9778
-6655	-3420.6257
-6461	-3416.0806
-5805	-3413.2383
-5590	-3411.5576
-6087	-3410.2705
-6734	-3409.4011
-6557	-3407.7114
-5827	-3405.6248
-5611	-3403.844
-5856	-3403.6213
-6231	-3406.036
-6400	-3411.6936
-5836	-3420.7246
-5672	-3432.5896
-6200	-3446.1792
-6810	-3459.8884
-6634	-3471.9912
-5942	-3480.9062
-5721	-3485.6313
-6185	-3486.0286
-6768	-3482.763
-6600	-3477.274
-5939	-3471.4456
-5731	-3467.332
-6201	-3466.7769
-6756	-3470.9685
-6602	-3480.1736
-5970	-3493.6213
-5760	-3509.6868
-6178	-3526.2268
-6744	-3540.8142
-6587	-3551.1895
-5953	-3555.5823
-5742	-3553.0798
-6224	-3543.753
-6769	-3528.5513
-6578	-3509.1145
-5889	-3487.4521
-5697	-3465.6924
-6178	-3445.8625
-6765	-3429.5303
-6609	-3417.7207
-5938	-3410.822
-5752	-3408.6987
-6241	-3410.8574
-6783	-3416.484
-6623	-3424.5874
-5968	-3434.1084
-5751	-3444.0696
-6239	-3453.7078
-6790	-3462.4465
-6664	-3469.9255
-5986	-3476.011
-5781	-3480.837
-6244	-3484.8699
-6787	-3488.6914
-6645	-3492.9302
-6019	-3498.1047
-5634	-3504.6167
-5739	-3512.668
-6384	-3521.9534
-6541	-3531.812
-5963	-3541.3445
-5813	-3549.5876
-6304	-3555.749
-6934	-3559.2798
-6756	-3560.0725
-6089	-3558.4265
-5852	-3555.0645
-6341	-3550.9985
-6894	-3547.2478
-6726	-3544.5874
-6059	-3543.3396
-5876	-3543.3474
-6369	-3544.0522
-6937	-3544.6152
-6701	-3544.181
-6019	-3542.1028
-5858	-3538.2297
-6358	-3533.1243
-6947	-3527.9038
-6786	-3524.0405
-6089	-3523.0261
-5862	-3525.9893
-6383	-3533.4312
-6974	-3544.9333
-6781	-3559.1982
-6067	-3574.193
-5906	-3587.5962
-6435	-3597.3633
-7019	-3602.1245
-6806	-3601.5762
-6082	-3596.5479
-5901	-3588.8574
-6438	-3580.995
-7030	-3575.4805
-6840	-3574.2295
-6102	-3578.0085
-5916	-3586.1663
-6430	-3596.7622
-6973	-3606.8657
-6776	-3613.1914
-6061	-3612.848
-5890	-3604.0842
-6394	-3586.91
-6966	-3563.1877
-6729	-3536.4602
-5859	-3511.2908
-5494	-3492.4487
-5992	-3484.013
-6643	-3488.506
-6739	-3506.3308
-6104	-3535.7087
-5997	-3572.9749
-6526	-3613.3372
-7109	-3651.6362
-6873	-3683.409
-6211	-3705.5142
-5994	-3716.691
-6504	-3717.6604
-7053	-3710.7463
-6836	-3699.254
-6160	-3686.651
-5965	-3675.8916
-6474	-3668.9216
-7076	-3666.365
-6869	-3667.6382
-6169	-3671.2322
-5995	-3675.257
-6491	-3678.0652
-7032	-3678.5684
-6826	-3676.4968
-6158	-3672.287
-5987	-3666.8926
-6469	-3661.4927
-7063	-3657.0662
-6892	-3654.127
-6214	-3652.6013
-6021	-3651.9834
-6516	-3651.6438
-7104	-3651.1382
-6924	-3650.462
-6195	-3650.1533
-5997	-3651.2249
-6486	-3654.9275
-7009	-3662.2524
-6834	-3673.4824
-6149	-3687.7532
-5962	-3703.0244
-6463	-3716.3232
-7045	-3724.1682
-6871	-3723.3074
-6166	-3711.4924
-5972	-3688.1233
-6501	-3654.7327
-7069	-3614.9185
-6848	-3573.9429
-6142	-3537.8035
-5981	-3512.2505
-6518	-3501.8079
-7066	-3508.8635
-6827	-3533.2046
-6154	-3571.9895
-5972	-3620.2473
-6489	-3671.7666
-7047	-3720.216
-6834	-3760.2236
-6127	-3788.131
-5969	-3802.4692
-6451	-3804.1018
-6974	-3795.7395
-6816	-3781.2346
-6154	-3764.7095
-5983	-3749.8
-6447	-3739.141
-6987	-3734.0203
-6789	-3734.454
-6175	-3739.3677
-6006	-3747.17
-6467	-3756.2537
-7013	-3765.2837
-6830	-3773.4402
-6159	-3780.3677
-5997	-3786.0337
-6492	-3790.6272
-7035	-3794.2527
-6844	-3796.8926
-6181	-3798.3508
-6036	-3798.4153
-6514	-3797.1611
-6992	-3795.0432
-6787	-3792.9412
-6121	-3791.9978
-5926	-3793.3816
-6391	-3797.9385
-6992	-3805.6956
-6829	-3815.6436
-6197	-3825.5786
-6055	-3832.3796
-6549	-3832.589
-7109	-3823.071
-6929	-3801.848
-6294	-3768.7004
-6149	-3725.5732
-6681	-3676.6301
-7199	-3627.7405
-6984	-3585.635
-6325	-3556.659
-6207	-3545.6929
-6722	-3555.3096
-7239	-3585.0955
-6976	-3631.7642
-6217	-3689.5696
-6046	-3751.0813
-6593	-3808.7217
-7143	-3855.9644
-6948	-3888.3574
-6276	-3904.0833
-6150	-3904.0457
-6711	-3891.5637
-7267	-3871.4856
-7041	-3849.165
-6354	-3829.3376
-6196	-3815.3174
-6703	-3808.6472
-7247	-3809.012
-7031	-3814.658
-6302	-3822.9685
-6083	-3831.2058
-6544	-3837.2664
-7287	-3840.0525
-7065	-3839.7644
-6368	-3837.5305
-6201	-3834.9944
-6740	-3833.8777
-7288	-3835.417
-7027	-3840.022
-6322	-3847.0566
-6215	-3854.9727
-6789	-3861.8027
-7282	-3865.6074
-7049	-3864.9448
-6459	-3859.1677
-6372	-3848.6565
-6939	-3834.8127
-7409	-3819.755
-7117	-3805.868
-6381	-3795.2573
-6249	-3789.318
-6826	-3788.5571
-7386	-3792.5408
-7111	-3800.0251
-6372	-3809.1912
-6281	-3817.9944
-6890	-3824.7122
-7427	-3828.2043
-7161	-3828.1084
-6446	-3824.721
-6339	-3818.8481
-6897	-3811.6472
-7421	-3804.351
-7124	-3798.087
-6421	-3793.407
-6464	-3790.216
-7171	-3788.1313
-7718	-3786.5615
-7373	-3784.8994
-6568	-3782.572
-6443	-3779.218
-7052	-3774.8523
-7585	-3769.8643
-7307	-3764.899
-6532	-3760.6633
-6474	-3757.7285
-7102	-3756.564
-7636	-3757.407
-7367	-3760.2349
-6630	-3764.7075
-6487	-3770.2405
-7133	-3776.183
-7684	-3781.875
-7291	-3786.8018
-6447	-3790.4705
-6353	-3792.4263
-7047	-3792.394
-7663	-3790.249
-7357	-3786.0283
-6561	-3779.8315
-6437	-3771.846
-7067	-3762.514
-7518	-3752.5486
-7079	-3742.9543
-6231	-3734.8857
-6057	-3729.59
-6661	-3728.383
-7271	-3732.4329
-7011	-3742.605
-6296	-3759.1816
-6246	-3781.6929
-6896	-3809.0286
-7430	-3839.386
-7036	-3870.481
-6156	-3899.6812
-6028	-3924.2869
-6704	-3942.0344
-7251	-3951.4104
-6919	-3951.907
-6169	-3944.0232
-6177	-3929.2192
-6923	-3909.9033
-7457	-3889.0957
-7058	-3869.9514
-6236	-3855.2273
-6155	-3846.8228
-6889	-3845.7415
-7427	-3851.9268
-7003	-3864.2874
-6169	-3880.7964
-6149	-3898.8093
-6902	-3915.6138
-7449	-3928.898
-6983	-3937.0818
-6094	-3939.4094
-6012	-3936.0342
-6667	-3928.0427
-7163	-3917.2483
-6829	-3905.7896
-6086	-3895.719
-6115	-3888.6194
-6872	-3885.5427
-7381	-3886.8833
-6923	-3892.3862
-6077	-3901.1982
-6023	-3912.061
-6799	-3923.7156
-7311	-3935.1902
-6881	-3945.9512
-6064	-3955.8008
-6058	-3964.8367
-6809	-3973.4478
-7342	-3982.1265
-6879	-3991.2598
-6052	-4000.8074
-6062	-4010.227
-6822	-4018.7034
-7364	-4025.2773
-6958	-4029.0706
-6132	-4029.398
-6122	-4025.9736
-6847	-4019.2063
-7355	-4010.231
-6957	-4000.7356
-6147	-3992.6548
-6087	-3987.826
-6807	-3987.8179
-7307	-3993.6646
-6897	-4005.6682
-6116	-4023.2437
-6103	-4045.0435
-6857	-4069.3157
-7407	-4094.2021
-6995	-4118.055
-6237	-4139.532
-6214	-4157.7983
-6889	-4172.6323
-7393	-4184.3325
-7029	-4193.5254
-6254	-4200.8003
-6195	-4206.5654
-6869	-4211.0107
-7373	-4214.104
-7093	-4215.6426
-6352	-4215.3936
-6224	-4213.226
-6924	-4209.385
-7437	-4204.5767
-7070	-4199.8926
-6304	-4196.4897
-6224	-4195.312
-6884	-4196.874
-7382	-4201.0137
-7036	-4206.739
-6312	-4212.16
-6280	-4214.7275
-6949	-4211.785
-7434	-4201.0547
-7060	-4181.1357
-6357	-4151.7915
-6314	-4114.1426
-6954	-4070.718
-7421	-4025.1023
-7089	-3981.3496
-6348	-3943.2664
-6321	-3913.71
-6936	-3894.237
-7409	-3884.8247
-7081	-3883.9321
-6364	-3888.7173
-6282	-3895.6802
-6868	-3901.4612
-7354	-3903.4912
-7034	-3900.5005
-6351	-3892.6519
-6296	-3881.5
-6942	-3869.6973
-7409	-3860.42
-7084	-3856.6177
-6346	-3860.3347
-6361	-3872.1768
-7031	-3891.2678
-7531	-3915.3074
-7232	-3940.95
-6471	-3964.3237
-6401	-3981.6704
-7011	-3990.1228
-7476	-3988.0972
-7172	-3975.5332
-6475	-3953.827
-6407	-3925.5168
-7072	-3893.973
-7551	-3862.8271
-7221	-3835.4124
-6441	-3814.279
-6235	-3800.8926
-6741	-3795.63
-7212	-3797.7874
-6862	-3805.8552
-6136	-3817.6863
-6129	-3830.8499
-6784	-3843.1072
-7227	-3852.6633
-6901	-3858.347
-6157	-3859.553
-6112	-3856.3887
-6821	-3849.6677
-7266	-3840.7974
-6874	-3831.5222
-6176	-3823.5894
-6077	-3818.562
-6682	-3817.6394
-7103	-3821.4492
-6704	-3829.901
-5971	-3842.1404
-5947	-3856.621
-6617	-3871.426
-7132	-3884.5764
-6749	-3894.349
-5970	-3899.5308
-5943	-3899.5806
-6634	-3894.8882
-7094	-3886.6814
-6695	-3876.8167
-6003	-3867.3528
-6014	-3860.241
-6713	-3857.0823
-7208	-3858.8232
-6809	-3865.6099
-6044	-3876.7505
-6039	-3890.8762
-6754	-3906.341
-7262	-3921.5078
-6832	-3935.0764
-6054	-3946.1724
-6044	-3954.4453
-6757	-3960.1948
-7221	-3964.1226
-6758	-3967.1665
-6009	-3970.1526
-6017	-3973.6416
-6732	-3977.895
-7230	-3982.8113
-6779	-3988.0134
-5978	-3992.8901
-6004	-3996.7285
-6786	-3999.0815
-7242	-3999.7913
-6849	-3999.0242
-6140	-3997.1812
-6123	-3994.8328
-6814	-3992.7078
-7304	-3991.55
-6879	-3991.9778
-6108	-3994.3325
-6067	-3998.6912
-6782	-4004.9255
-7352	-4012.6697
-6961	-4021.3755
-6144	-4030.2812
-6166	-4038.4558
-6916	-4045.022
-7408	-4049.2012
-6972	-4050.384
-6199	-4048.179
-6199	-4042.5405
-6947	-4033.9053
-7386	-4023.2283
-6957	-4011.8552
-6155	-4001.293
-6177	-3993.033
-6911	-3988.4429
-7405	-3988.4753
-6982	-3993.5059
-6163	-4003.1794
-6169	-4016.4595
-6894	-4031.9683
-7401	-4048.1904
-6999	-4063.7397
-6177	-4077.6443
-6161	-4089.4927
-6667	-4099.636
-6952	-4108.905
-6908	-4118.216
-6229	-4128.4014
-6252	-4139.722
-6914	-4151.7046
-7428	-4162.969
-6989	-4171.354
-6144	-4174.1875
-6105	-4168.8096
-6798	-4153.241
-7255	-4126.66
-6725	-4089.723
-5866	-4044.6462
-5772	-3995.0361
-6399	-3945.4695
-6749	-3900.7612
-6289	-3865.1392
-5597	-3841.501
-5691	-3830.905
-6458	-3832.5085
-7001	-3843.6052
-6622	-3860.1096
-5927	-3877.2122
-5976	-3890.2214
-6651	-3895.4492
-7031	-3890.7036
-6669	-3875.536
-5987	-3851.262
-6032	-3820.6343
-6752	-3787.3562
-7246	-3755.3347
-6866	-3727.995
-6108	-3707.7417
-6097	-3695.6938
-6772	-3691.7053
-7266	-3694.5051
-6906	-3702.1072
-6205	-3712.2534
-6203	-3722.94
-6877	-3732.834
-7332	-3741.3767
-6996	-3748.7607
-6257	-3755.7537
-6219	-3763.3552
-6867	-3772.5483
-7334	-3783.898
-6981	-3797.3042
-6051	-3812.0093
-5676	-3826.6355
-6417	-3839.401
-7087	-3848.5103
-6953	-3852.493
-6321	-3850.5725
-6337	-3842.843
-7052	-3830.4182
-7527	-3815.2556
-7164	-3799.8738
-6507	-3786.9075
-6459	-3778.7212
-6852	-3777.0898
-7221	-3782.7354
-7126	-3795.1438
-6445	-3812.7915
-6406	-3833.2595
-7043	-3853.8047
-7492	-3871.8235
-7159	-3885.285
-6477	-3893.132
-6426	-3895.505
-7042	-3893.7834
-7488	-3890.2349
-7122	-3887.5676
-6441	-3888.2898
-6429	-3894.1875
-7025	-3905.9983
-7520	-3923.1128
-7208	-3943.6755
-6472	-3964.9666
-6459	-3983.9204
-7106	-3997.877
-7559	-4005.1553
-7213	-4005.4243
-6499	-3999.8083
-6417	-3990.6226
-7072	-3980.9463
-7541	-3973.8413
-7194	-3971.6262
-6503	-3975.2222
-6448	-3983.8533
-7110	-3995.184
-7552	-4005.7854
-7177	-4011.8765
-6516	-4010.1643
-6480	-3998.7612
-7109	-3977.8293
-7578	-3949.724
-7149	-3918.722
-6283	-3890.2065
-5971	-3869.6165
-6629	-3861.2847
-7259	-3867.3894
-7231	-3887.3093
-6569	-3917.554
-6561	-3952.0884
-7193	-3983.374
-7669	-4003.6028
-7311	-4006.0303
-6581	-3986.1865
-6580	-3942.6501
-7222	-3877.477
-7649	-3795.915
-7316	-3705.536
-6645	-3615.1187
-6581	-3533.3813
-7150	-3467.843
-7586	-3423.8557
-7277	-3404.0393
-6616	-3408.1335
-6564	-3433.3474
-7211	-3475.025
-7642	-3527.383
-7306	-3584.3057
-6635	-3640.089
-6597	-3689.969
-7235	-3730.6345
-7686	-3760.3533
-7339	-3778.9844
-6637	-3787.8728
-6561	-3789.6084
-7214	-3787.6772
-7689	-3786.028
-7378	-3788.468
-6686	-3798.0845
-6614	-3816.673
-7227	-3844.354
-7652	-3879.3354
-7301	-3917.9607
-6657	-3955.1125
-6614	-3985.0154
-7227	-4002.2551
-7658	-4002.7788
-7347	-3984.7705
-6721	-3949.2837
-6710	-3900.3633
-7367	-3844.6582
-7786	-3790.458
-7423	-3746.3306
-6769	-3719.6667
-6715	-3715.3994
-7340	-3735.1392
-7819	-3776.7869
-7491	-3834.8958
-6866	-3901.6223
-6892	-3968.1638
-7619	-4026.3618
-8078	-4070.0676
-7797	-4096.041
-7181	-4104.335
-7284	-4098.0073
-7973	-4082.3064
-8484	-4063.338
-8194	-4046.782
-7556	-4036.7227
-7546	-4035.0566
-8246	-4041.3823
-8678	-4053.3672
-8298	-4067.5479
-7648	-4080.3374
-7574	-4088.997
-8228	-4092.2532
-8584	-4090.542
-8150	-4085.6558
-7442	-4080.1047
-7367	-4076.398
-7922	-4076.2979
-8294	-4080.297
-7952	-4087.4548
-7296	-4095.6792
-7253	-4102.432
-7780	-4105.5635
-8151	-4103.9136
-7809	-4097.6953
-7120	-4088.5964
-7011	-4079.3684
-7648	-4073.091
-8061	-4072.2246
-7628	-4077.7551
-6988	-4088.6584
-6958	-4101.904
-7577	-4113.0156
-8004	-4116.9062
-7636	-4109.095
-6942	-4086.8909
-6914	-4050.2908
-7568	-4002.4268
-7958	-3949.1958
-7607	-3898.329
-6941	-3858.025
-6931	-3835.4265
-7564	-3835.2935
-7917	-3858.8923
-7533	-3903.7258
-6852	-3963.9111
-6799	-4031.0725
-7429	-4096.058
-7847	-4150.502
-7521	-4188.213
-6892	-4206.1025
-6921	-4204.5845
-7526	-4187.2974
-7899	-4160.0693
-7516	-4129.624
-6845	-4102.217
-6839	-4082.5627
-7483	-4073.136
-7905	-4073.9265
-7549	-4082.7725
-6866	-4096.152
-6860	-4110.106
-7497	-4121.267
-7944	-4127.4863
-7629	-4128.1904
-6981	-4124.2847
-6989	-4117.7407
-7646	-4111.0063
-8018	-4106.2607
-7599	-4104.809
-6981	-4106.7773
-7031	-4111.1567
-7724	-4116.169
-8111	-4119.7974
-7732	-4120.304
-7026	-4116.783
-7004	-4109.385
-7762	-4099.431
-8166	-4089.0974
-7794	-4080.8909
-7241	-4077.013
-7397	-4078.9058
-8212	-4086.9407
-8777	-4100.311
-8501	-4117.1865
-7834	-4135.1187
-7810	-4151.598
-8621	-4164.6724
-9047	-4173.4873
-8645	-4178.4556
-7948	-4181.2646
-8012	-4184.577
-8705	-4191.761
-9094	-4206.314
-8759	-4231.091
-8144	-4267.8833
-8153	-4317.1797
-8622	-4378.286
-8922	-4449.2666
-8760	-4527.171
-8036	-4608.568
-8014	-4689.7856
-8696	-4767.342
-9049	-4838.187
-8643	-4899.8423
-7898	-4950.4136
-7807	-4988.4487
-8356	-5013.165
-8678	-5024.35
-8288	-5022.28
-7616	-5007.744
-7572	-4982.043
-8151	-4947.013
-8530	-4904.932
-8079	-4858.3115
-7398	-4809.662
-7389	-4761.2534
-8004	-4714.943
-8407	-4671.973
-8052	-4632.8613
-7375	-4597.3774
-7401	-4564.695
-8041	-4533.7847
-8366	-4503.6196
-8034	-4473.3813
-7391	-4442.7397
-7315	-4411.943
-7984	-4381.807
-8295	-4353.6313
-7862	-4328.7935
-7251	-4308.461
-7259	-4293.3657
-7851	-4283.647
-8214	-4278.735
-7789	-4277.378
-7136	-4277.789
-7105	-4277.968
-7726	-4276.074
-8116	-4270.7114
-7756	-4261.1416
-7137	-4247.342
-7154	-4230.0664
-7756	-4210.755
-8117	-4191.2886
-7722	-4173.545
-7104	-4159.104
-7116	-4148.983
-7776	-4143.659
-8095	-4142.9463
-7701	-4145.967
-7093	-4151.299
-7151	-4157.247
-7762	-4162.239
-8064	-4165.0254
-7691	-4164.8364
-7093	-4161.575
-7092	-4155.853
-7672	-4148.9795
-8047	-4142.718
-7742	-4139.014
-7131	-4139.607
-7151	-4145.7393
-7737	-4157.966
-8052	-4175.958
-7674	-4198.383
-7124	-4223.0776
-7083	-4247.3506
-7614	-4268.469
-7987	-4284.072
-7641	-4292.651
-7027	-4293.9033
-7057	-4288.9863
-7625	-4280.6206
-8006	-4272.781
-7628	-4270.219
-7024	-4277.7935
-7036	-4299.807
-7587	-4339.4355
-7932	-4398.0796
-7634	-4475.0547
-7057	-4567.5483
-7060	-4670.9604
-7667	-4779.472
-7978	-4886.7905
-7650	-4986.8667
-7065	-5074.66
-7094	-5146.711
-7738	-5201.5166
-8026	-5239.609
-7637	-5263.1157
-7052	-5275.329
-7077	-5280.1074
-7774	-5281.187
-8069	-5281.7017
-7690	-5283.626
-7018	-5287.6035
-7006	-5292.999
-7660	-5298.188
-8094	-5300.9565
-7664	-5298.887
-7026	-5289.7886
-7022	-5272.038
-7641	-5244.8706
-8052	-5208.4126
-7676	-5163.606
-7050	-5112.012
-7038	-5055.609
-7660	-4996.6294
-7997	-4937.344
-7670	-4879.8066
-7082	-4825.7925
-7081	-4776.747
-7666	-4733.804
-8021	-4697.7744
-7662	-4669.0337
-7106	-4647.5483
-7083	-4632.9
-7656	-4624.2993
-8004	-4620.5903
-7621	-4620.313
-7069	-4621.7373
-7122	-4623.078
-7738	-4622.699
-8077	-4619.2773
-7704	-4611.8926
-7103	-4600.0845
-7111	-4583.876
-7669	-4563.8237
-8031	-4540.901
-7703	-4516.242
-7122	-4491.0557
-6907	-4466.563
-7424	-4443.784
-8021	-4423.4595
-7627	-4406.161
-7081	-4392.1323
-7119	-4381.4165
-7706	-4373.9507
-8030	-4369.558
-7673	-4367.8965
-7112	-4368.498
-7137	-4370.778
-7707	-4374.104
-8039	-4377.7974
-7654	-4381.1323
-7089	-4383.417
-7071	-4384.1147
-7614	-4382.9893
-7960	-4380.1016
-7663	-4375.808
-7049	-4370.741
-7034	-4365.7275
-7647	-4361.6733
-7962	-4359.415
-7621	-4359.4824
-7015	-4362.019
-7016	-4366.689
-7596	-4372.7954
-7952	-4379.3267
-7611	-4385.084
-7027	-4388.906
-7001	-4389.882
-7579	-4387.5537
-7905	-4381.97
-7555	-4373.6196
-6972	-4363.348
-6997	-4352.2026
-7574	-4341.331
-7906	-4331.7285
-7560	-4324.0444
-6980	-4318.5405
-6993	-4315.123
-7575	-4313.4487
-7901	-4313.0474
-7547	-4313.435
-6973	-4314.273
-6980	-4315.446
-7531	-4317.157
-7859	-4319.7964
-7497	-4323.746
-6911	-4329.3286
-6872	-4336.6543
-7411	-4345.588
-7756	-4355.6714
-7433	-4366.1787
-6854	-4376.2314
-6818	-4384.9883
-7406	-4391.841
-7739	-4396.498
-7343	-4398.9116
-6779	-4399.3184
-6819	-4398.1714
-7249	-4396.111
-7473	-4393.6807
-7271	-4391.175
-6821	-4388.7095
-6901	-4386.2124
-7460	-4383.596
-7796	-4380.753
-7478	-4377.723
-6894	-4374.7534
-6912	-4372.171
-7483	-4370.5737
-7824	-4370.569
-7454	-4372.534
-6877	-4376.547
-6906	-4382.261
-7466	-4388.987
-7834	-4395.7324
-7526	-4401.3535
-6901	-4404.8823
-6901	-4405.6934
-7511	-4403.793
-7899	-4399.8667
-7526	-4395.1787
-6937	-4391.2974
-6957	-4389.8164
-7569	-4392.028
-7944	-4398.534
-7610	-4409.025
-7028	-4422.2197
-7024	-4436.061
-7592	-4448.0967
-7967	-4455.9194
-7634	-4457.575
-7021	-4452.093
-7044	-4439.628
-7634	-4421.647
-7955	-4400.686
-7562	-4379.857
-6995	-4362.3716
-7058	-4350.9736
-7667	-4347.4873
-8020	-4352.502
-7672	-4365.244
-7066	-4383.7397
-7084	-4405.182
-7662	-4426.467
-8009	-4444.699
-7661	-4457.61
-7090	-4463.8584
-6861	-4463.2617
-7159	-4456.6694
-7711	-4445.5806
-7535	-4431.959
-7061	-4417.7944
-7125	-4404.803
-7728	-4394.224
-8064	-4386.707
-7717	-4382.245
-7136	-4380.383
-7106	-4380.3276
-7652	-4381.191
-8006	-4382.098
-7664	-4382.306
-7066	-4381.282
-7099	-4378.671
-7701	-4374.383
-8048	-4368.552
-7696	-4361.496
-7142	-4353.6787
-7165	-4345.701
-7732	-4338.316
-8087	-4332.302
-7722	-4328.3203
-7102	-4326.819
-7153	-4327.8423
-7877	-4330.9985
-8270	-4335.544
-7887	-4340.3647
-7267	-4344.1396
-7294	-4345.547
-7890	-4343.615
-8177	-4337.9077
-7769	-4328.571
-7196	-4316.302
-7234	-4302.2437
-7902	-4287.719
-8181	-4274.0005
-7757	-4261.889
-7196	-4251.509
-7271	-4242.2646
-7864	-4233.051
-8186	-4222.515
-7814	-4209.361
-7180	-4192.812
-7264	-4172.8447
-7900	-4150.444
-8207	-4127.555
-7799	-4106.728
-6982	-4090.757
-6687	-4082.098
-7502	-4082.2632
-8057	-4091.7014
-7724	-4109.55
-7272	-4133.7515
-7358	-4161.428
-7970	-4189.4155
-8286	-4214.822
-7893	-4235.3755
-7341	-4249.79
-7337	-4257.897
-7901	-4260.5435
-8183	-4259.2695
-7787	-4255.878
-7260	-4252.007
-7316	-4248.9336
-7884	-4247.4688
-8161	-4247.968
-7827	-4250.3823
-7297	-4254.5566
-7334	-4260.3896
-7951	-4267.968
-8247	-4277.5884
-7797	-4289.507
-7271	-4303.7075
-7324	-4319.7393
-7911	-4336.5957
-8240	-4352.793
-7864	-4366.529
-7289	-4376.017
-7315	-4379.985
-7922	-4378.083
-8259	-4371.1343
-7894	-4361.0913
-7317	-4350.757
-7214	-4343.2734
-7771	-4341.3945
-8233	-4346.8247
-7847	-4359.725
-7336	-4378.4033
-7418	-4399.5347
-8025	-4418.7344
-8314	-4431.509
-7924	-4434.0474
-7369	-4424.0063
-7383	-4401.316
-7991	-4368.2983
-8317	-4329.3696
-7822	-4290.3174
-7047	-4257.227
-6826	-4235.367
-7631	-4228.1465
-8199	-4236.6333
-7889	-4259.388
-7405	-4292.697
-7512	-4331.3877
-8146	-4369.8223
-8474	-4402.969
-8025	-4427.179
-7429	-4440.674
-7503	-4443.6084
-8061	-4437.918
-8373	-4426.67
-7983	-4413.271
-7416	-4400.8335
-7449	-4391.639
-8087	-4387.0103
-8393	-4387.3535
-7983	-4392.379
-7419	-4401.4224
-7472	-4413.81
-8094	-4429.064
-8371	-4446.9395
-7916	-4467.1606
-7369	-4489.132
-7464	-4511.734
-8072	-4533.284
-8367	-4551.6475
-7944	-4564.5474
-7415	-4570.027
-7509	-4567.061
-8105	-4556.0444
-8390	-4538.926
-7997	-4519.0044
-7477	-4500.341
-7534	-4486.963
-8112	-4481.968
-8398	-4486.6997
-8011	-4500.203
-7456	-4519.211
-7514	-4538.618
-8097	-4552.5806
-8385	-4555.6826
-8004	-4544.1997
-7454	-4517.029
-7499	-4476.191
-8102	-4426.742
-8428	-4375.9634
-8045	-4332.0073
-7478	-4302.345
-7578	-4292.3457
-8208	-4304.237
-8472	-4336.6494
-8041	-4384.87
-7481	-4441.69
-7535	-4498.7144
-8182	-4548.0225
-8489	-4583.5845
-8068	-4602.166
-7509	-4603.6655
-7579	-4590.829
-8177	-4568.5024
-8467	-4542.479
-8066	-4518.215
-7504	-4499.806
-7558	-4489.4233
-8163	-4487.2324
-8456	-4491.7505
-8060	-4500.4873
-7507	-4510.6953
-7565	-4520.086
-8205	-4527.35
-8540	-4532.2305
-8109	-4535.229
-7516	-4537.137
-7558	-4538.564
-8200	-4539.5938
-8484	-4539.7017
-8071	-4537.8296
-7508	-4532.825
-7612	-4523.9873
-8229	-4511.646
-8523	-4497.4185
-8094	-4484.058
-7528	-4474.9365
-7580	-4473.3247
-8206	-4481.5317
-8501	-4500.092
-8106	-4527.2275
-7546	-4558.8384
-7567	-4589.101
-8156	-4611.502
-8443	-4620.1772
-8042	-4611.187
-7517	-4583.559
-7591	-4539.8022
-8205	-4485.79
-8485	-4429.847
-8065	-4381.325
-7522	-4348.8354
-7601	-4338.669
-8201	-4353.62
-8485	-4392.438
-8094	-4450.009
-7516	-4518.1157
-7599	-4587.0547
-8236	-4647.465
-8465	-4691.992
-8014	-4716.3994
-7551	-4720.1104
-7640	-4706.082
-8271	-4679.9893
-8562	-4648.9346
-8126	-4619.904
-7585	-4598.344
-7682	-4587.2964
-8287	-4587.1035
-8564	-4595.596
-8142	-4608.86
-7406	-4622.314
-7398	-4631.7666
-8312	-4634.394
-8587	-4629.4688
-8123	-4618.261
-7592	-4603.573
-7685	-4589.088
-8334	-4578.4785
-8593	-4574.5786
-8155	-4578.646
-7600	-4590.1743
-7684	-4607.042
-8289	-4626.1016
-8561	-4643.8564
-8147	-4657.158
-7598	-4663.866
-7694	-4663.2354
-8311	-4656.0415
-8594	-4644.3223
-8154	-4630.8315
-7599	-4618.4395
-7672	-4609.5747
-8296	-4605.7847
-8591	-4607.5337
-8131	-4614.2
-7587	-4624.289
-7697	-4635.8486
-8315	-4647.0063
-8589	-4656.314
-8181	-4662.9346
-7661	-4666.759
-7752	-4668.2793
-8376	-4668.46
-8617	-4668.4775
-8175	-4669.1567
-7675	-4670.8364
-7715	-4673.4497
-8319	-4676.4697
-8592	-4679.166
-8149	-4680.7383
-7620	-4680.5513
-7710	-4678.3516
-8296	-4674.382
-8561	-4669.387
-8126	-4664.374
-7619	-4660.4087
-7711	-4658.3945
-8308	-4658.894
-8592	-4661.9834
-8166	-4667.1997
-7645	-4673.614
-7742	-4680.027
-8305	-4685.2847
-8594	-4688.519
-8203	-4689.2915
-7678	-4687.6997
-7742	-4684.388
-8344	-4680.39
-8618	-4676.944
-8227	-4675.1104
-7681	-4675.5654
-7714	-4678.383
-8312	-4683.045
-8637	-4688.501
-8200	-4693.3657
-7717	-4696.1533
-7791	-4695.6924
-8385	-4691.408
-8673	-4683.5396
-8241	-4673.066
-7713	-4661.4834
-7779	-4650.655
-8352	-4642.3945
-8614	-4638.1177
-8217	-4638.449
-7732	-4643.1025
-7811	-4650.9033
-8331	-4660.0786
-8565	-4668.601
-8189	-4674.5576
-7743	-4676.59
-7862	-4674.268
-8434	-4668.24
-8657	-4660.163
-8232	-4652.1577
-7762	-4646.4404
-7828	-4644.941
-8347	-4648.833
-8573	-4658.2236
-8195	-4672.0234
-7724	-4688.108
-7827	-4703.7974
-8357	-4716.38
-8624	-4723.6353
-8290	-4724.2817
-7809	-4718.256
-7883	-4706.782
-8429	-4692.1675
-8674	-4677.3516
-8296	-4665.279
-7809	-4658.3525
-7914	-4658.004
-8434	-4664.4766
-8655	-4676.806
-8249	-4692.9897
-7761	-4710.4204
-7864	-4726.468
-8453	-4738.965
-8655	-4746.6133
-8226	-4749.0845
-7759	-4746.9873
-7886	-4741.6997
-8442	-4734.984
-8674	-4728.588
-8261	-4723.8306
-7794	-4721.3345
-7906	-4721.041
-8479	-4722.3213
-8726	-4724.247
-8299	-4725.8364
-7821	-4726.353
-7888	-4725.554
-8472	-4723.778
-8727	-4721.8594
-8326	-4720.8657
-7832	-4721.791
-7900	-4725.323
-8483	-4731.626
-8736	-4740.2637
-8343	-4750.1885
-7842	-4759.9297
-7984	-4767.8984
-8575	-4772.7656
-8753	-4773.6953
-8323	-4770.4453
-7846	-4763.415
-7966	-4753.578
-8540	-4742.3
-8775	-4731.0767
-8330	-4721.1973
-7832	-4713.5474
-7976	-4708.5635
-8579	-4706.257
-8784	-4706.3193
-8322	-4708.205
-7885	-4711.283
-8041	-4715.0273
-8620	-4719.1323
-8801	-4723.5083
-8384	-4728.105
-7917	-4732.8506
-8011	-4737.6074
-8643	-4742.114
-8811	-4746.07
-8361	-4749.0693
-7941	-4750.728
-8056	-4750.909
-8603	-4749.824
-8811	-4748.0415
-8416	-4746.3315
-7984	-4745.5684
-8096	-4746.5425
-8694	-4749.807
-8904	-4755.456
-8455	-4763.013
-7974	-4771.449
-8119	-4779.395
-8729	-4785.439
-8888	-4788.444
-8433	-4787.7017
-7944	-4783.167
-8045	-4775.554
-8632	-4766.2544
-8834	-4757.1
-8414	-4749.949
-7949	-4746.272
-8073	-4746.9263
-8669	-4751.9434
-8864	-4760.5225
-8403	-4771.097
-7960	-4781.601
-8124	-4789.952
-8702	-4794.4805
-8844	-4794.273
-8399	-4789.284
-7985	-4780.365
-8137	-4769.171
-8780	-4757.8755
-8929	-4748.7827
-8442	-4743.801
-7994	-4744.1187
-8141	-4750.057
-8746	-4760.997
-8924	-4775.572
-8439	-4791.8228
-7858	-4807.57
-7969	-4820.793
-8733	-4829.935
-8942	-4834.218
-8462	-4833.5854
-7988	-4828.62
-8167	-4820.429
-8775	-4810.4937
-8935	-4800.413
-8479	-4791.4067
-8034	-4784.388
-8206	-4779.867
-8811	-4777.9883
-8986	-4778.5747
-8501	-4781.203
-8011	-4785.289
-8172	-4790.252
-8789	-4795.6084
-8974	-4801.0034
-8449	-4806.165
-8066	-4810.8164
-8219	-4814.775
-8784	-4817.966
-8939	-4820.376
-8491	-4822.0303
-7989	-4823.0024
-8116	-4823.477
-8713	-4823.765
-8898	-4824.2993
-8443	-4825.471
-8021	-4827.575
-8194	-4830.8003
-8767	-4835.188
-8913	-4840.5923
-8445	-4846.592
-8034	-4852.5356
-8185	-4857.7324
-8429	-4861.623
-8429	-4863.788
-8436	-4863.8716
-8071	-4861.9824
-8246	-4858.5596
-8831	-4854.384
-8996	-4850.4746
-8512	-4847.872
-8107	-4847.4077
-8277	-4849.6606
-8826	-4854.8296
-9000	-4862.6396
-8547	-4872.3433
-8164	-4882.7603
-8280	-4892.5884
-8830	-4900.5815
-8992	-4905.812
-8559	-4907.777
-8136	-4906.515
-8277	-4902.709
-8836	-4897.595
-8959	-4892.7583
-8500	-4889.8174
-8089	-4890.064
-8270	-4894.3125
-8816	-4902.729
-8959	-4914.7744
-8535	-4929.157
-8133	-4944.0693
-8259	-4957.553
-8736	-4967.868
-8892	-4973.765
-8469	-4974.6343
-8079	-4970.604
-8239	-4962.554
-8745	-4951.9497
-8943	-4940.495
-8516	-4929.7983
-8101	-4921.0283
-8249	-4914.829
-8743	-4911.2935
-8877	-4909.9937
-8466	-4910.157
-8096	-4910.8945
-8248	-4911.5757
-8719	-4912.0083
-8904	-4912.456
-8544	-4913.553
-8154	-4916.0586
-7958	-4920.759
-8141	-4928.0454
-8644	-4937.6074
-8487	-4948.5312
-8182	-4959.364
-8312	-4968.379
-8802	-4973.9175
-8956	-4974.78
-8574	-4970.483
-8189	-4961.4194
-8312	-4948.8975
-8807	-4934.9673
-8940	-4922.0234
-8544	-4912.3354
-8176	-4907.5713
-8298	-4908.58
-8799	-4915.2314
-8924	-4926.531
-8559	-4940.738
-8175	-4955.7905
-8298	-4969.785
-8777	-4981.3403
-8946	-4989.7876
-8573	-4995.184
-8196	-4998.141
-8317	-4999.599
-8798	-5000.527
-8962	-5001.5684
-8579	-5002.8223
-8258	-5003.8433
-8374	-5003.862
-8848	-5002.0615
-8970	-4997.8564
-8614	-4991.149
-8254	-4982.433
-8360	-4972.874
-8648	-4964.047
-8729	-4957.5054
-8608	-4954.26
-8283	-4954.5938
-8344	-4957.856
-8845	-4962.4595
-8984	-4966.206
-8614	-4966.651
-8293	-4961.717
-8392	-4950.3
-8857	-4932.6367
-8975	-4910.4526
-8645	-4886.6133
-7999	-4864.849
-7675	-4849.0464
-8254	-4842.376
-8746	-4846.7964
-8594	-4862.626
-8299	-4888.4653
-8430	-4921.4756
-8873	-4957.8584
-9032	-4993.5283
-8686	-5024.74
-8332	-5048.7236
-8409	-5064.089
-8876	-5070.893
-9036	-5070.401
-8658	-5064.644
-8359	-5055.9443
-8453	-5046.514
-8859	-5038.0566
-9007	-5031.537
-8697	-5027.1655
-8347	-5024.6113
-8416	-5023.2886
-8880	-5022.5684
-9041	-5021.988
-8688	-5021.194
-8311	-5020.0137
-8416	-5018.3545
-8846	-5016.076
-8991	-5012.907
-8656	-5008.4316
-8319	-5002.2324
-8400	-4994.16
-8850	-4984.4805
-9021	-4974.0215
-8706	-4964.0776
-8351	-4956.2646
-8444	-4952.234
-8903	-4953.2085
-9042	-4959.5464
-8725	-4970.3784
-8390	-4983.631
-8496	-4996.285
-8937	-5004.868
-9051	-5006.116
-8684	-4997.646
-8362	-4978.6055
-8469	-4950.122
-8897	-4915.266
-9046	-4878.6064
-8681	-4845.438
-8334	-4820.869
-8480	-4808.9463
-8917	-4811.878
-9032	-4829.6143
-8718	-4859.7964
-8400	-4898.2837
-8469	-4939.975
-8901	-4979.679
-9042	-5013.0483
-8757	-5037.1143
-8401	-5050.776
-8450	-5054.7334
-8912	-5051.0176
-9069	-5042.4023
-8712	-5031.6665
-8396	-5021.055
-8546	-5012.0337
-8946	-5005.246
-9064	-5000.6523
-8739	-4997.779
-8432	-4996.243
-8539	-4996.1147
-8948	-4997.9062
-9024	-5002.399
-8708	-5010.1914
-8393	-5021.4126
-8502	-5035.385
-8933	-5050.451
-9054	-5064.137
-8716	-5073.5044
-8387	-5075.9146
-8495	-5069.782
-8914	-5055.1655
-9028	-5033.992
-8704	-5009.8765
-8364	-4987.5693
-8502	-4972.086
-8957	-4967.4956
-9085	-4975.896
-8741	-4996.637
-8405	-5026.2085
-8513	-5058.6807
-8992	-5086.7573
-9132	-5103.142
-8747	-5102.026
-8421	-5080.4385
-8524	-5039.166
-8974	-4982.8047
-9074	-4919.1562
-8702	-4857.8545
-8398	-4808.7056
-8584	-4779.948
-9019	-4776.7163
-9120	-4800.048
-8716	-4846.772
-8373	-4910.096
-8559	-4980.7144
-9001	-5048.7974
-9122	-5105.6084
-8744	-5144.9443
-8396	-5164.0386
-8547	-5163.8604
-9022	-5148.547
-9131	-5124.34
-8726	-5098.1504
-8429	-5076.129
-8586	-5062.636
-9074	-5059.4966
-9183	-5065.964
-8756	-5079.1187
-8429	-5094.711
-8622	-5108.317
-9069	-5116.3354
-9125	-5116.7163
-8711	-5109.2437
-8372	-5095.492
-8544	-5078.39
-9053	-5061.4834
-9162	-5048.1724
-8722	-5040.969
-8389	-5041.056
-8568	-5048.193
-9107	-5060.8984
-9221	-5076.8633
-8779	-5093.451
-8437	-5108.192
-8583	-5119.279
-9104	-5125.785
-9242	-5127.727
-8809	-5125.8467
-8448	-5121.3174
-8642	-5115.469
-9165	-5109.5415
-9228	-5104.4575
-8775	-5100.702
-8420	-5098.3306
-8635	-5097.1147
-9153	-5096.715
-9180	-5096.8257
-8741	-5097.2056
-8437	-5097.6606
-8675	-5098.1416
-9174	-5098.666
-9244	-5099.391
-8787	-5100.4443
-8425	-5101.723
-8617	-5103.0874
-9130	-5104.476
-9229	-5105.9067
-8776	-5107.4316
-8418	-5109.108
-8632	-5111.015
-9138	-5113.2476
-9213	-5115.868
-8776	-5118.784
-8447	-5121.7734
-8649	-5124.5127
-9179	-5126.672
-9252	-5127.9727
-8768	-5128.208
-8402	-5127.242
-8679	-5125.0537
-9217	-5121.8047
-9261	-5117.7783
-8759	-5113.2705
-8413	-5108.506
-8662	-5103.671
-9185	-5098.957
-9261	-5094.5854
-8777	-5090.7803
-8467	-5087.729
-8671	-5085.7095
-9017	-5085.058
-9086	-5086.094
-8808	-5088.9604
-8444	-5093.6396
-8657	-5099.8516
-9217	-5107.072
-9294	-5114.622
-8784	-5121.759
-8461	-5127.6797
-8676	-5131.688
-9229	-5133.4336
-9292	-5133.032
-8674	-5130.953
-8361	-5127.845
-8704	-5124.501
-9224	-5121.734
-9285	-5120.204
-8791	-5120.2207
-8466	-5121.672
-8703	-5124.0547
-9242	-5126.7017
-9337	-5129.0386
-8853	-5130.477
-8472	-5130.597
-8715	-5129.372
-9290	-5127.2207
-9357	-5124.958
-8836	-5123.527
-8476	-5123.749
-8719	-5126.1743
-9288	-5130.959
-9352	-5137.867
-8872	-5146.1753
-8501	-5154.756
-8691	-5162.3735
-9276	-5167.831
-9363	-5170.2983
-8862	-5169.396
-8496	-5165.1753
-8697	-5158.179
-9270	-5149.3696
-9359	-5140.022
-8844	-5131.4697
-8512	-5124.8276
-8754	-5120.9404
-9348	-5120.2925
-9414	-5123.0356
-8882	-5128.937
-8522	-5137.368
-8787	-5147.4663
-9322	-5158.305
-9370	-5169.033
-8852	-5178.869
-8516	-5187.1084
-8773	-5193.263
-9351	-5197.1006
-9431	-5198.7036
-8907	-5198.3647
-8566	-5196.5015
-8797	-5193.6333
-9391	-5190.3447
-9413	-5187.298
-8868	-5184.9946
-8517	-5183.71
-8761	-5183.478
-9337	-5184.1313
-9399	-5185.403
-8873	-5186.888
-8553	-5188.107
-8837	-5188.638
-9384	-5188.258
-9399	-5186.986
-8858	-5185.0234
-8510	-5182.6475
-8791	-5180.175
-9395	-5177.906
-9450	-5176.164
-8880	-5175.108
-8527	-5174.676
-8795	-5174.688
-9362	-5174.964
-9419	-5175.475
-8905	-5176.2524
-8559	-5177.3745
-8811	-5179.0244
-9421	-5181.3896
-9436	-5184.653
-8889	-5188.7764
-8524	-5193.3804
-8814	-5197.775
-9411	-5201.071
-9424	-5202.422
-8862	-5201.1035
-8547	-5196.649
-8837	-5189.0806
-9406	-5179.0303
-9449	-5167.751
-8917	-5156.851
-8591	-5147.992
-8822	-5142.6353
-9391	-5141.7446
-9458	-5145.626
-8924	-5153.7593
-8599	-5164.804
-8862	-5176.869
-9441	-5187.914
-9492	-5196.159
-8959	-5200.3843
-8624	-5200.124
-8845	-5195.787
-9432	-5188.636
-9481	-5180.554
-8942	-5173.592
-8598	-5169.5044
-8861	-5169.4897
-9476	-5173.9375
-9559	-5182.4697
-8987	-5193.974
-8661	-5206.778
-8917	-5219.1084
-9477	-5229.43
-9515	-5236.811
-8999	-5240.969
-8655	-5242.233
-8937	-5241.4375
-9514	-5239.6963
-9519	-5238.117
-8992	-5237.4873
-8656	-5238.0635
-8912	-5239.589
-9516	-5241.433
-9541	-5242.855
-9009	-5243.1504
-8678	-5241.8706
-8714	-5239.0767
-9251	-5235.2617
-9627	-5231.284
-9056	-5228.3022
-8666	-5227.276
-8951	-5228.8384
-9516	-5233.118
-9568	-5239.7217
-9023	-5247.766
-8725	-5255.987
-8961	-5263.11
-9521	-5268.108
-9587	-5270.4814
-9069	-5270.2944
-8732	-5268.1387
-8981	-5265.033
-9555	-5262.181
-9562	-5260.746
-9031	-5261.484
-8717	-5264.5566
-9008	-5269.5737
-9564	-5275.6426
-9556	-5281.6763
-9027	-5286.486
-8729	-5289.0615
-9029	-5288.8496
-9581	-5285.8857
-9613	-5280.7856
-9094	-5274.538
-8796	-5268.274
-9055	-5263.094
-9580	-5259.8315
-9639	-5258.907
-9141	-5260.2183
-8787	-5263.2217
-9047	-5267.0566
-9669	-5270.769
-9517	-5273.626
-8906	-5275.119
-8757	-5274.994
-9041	-5273.4756
-9613	-5271.0776
-9676	-5268.534
-9112	-5266.572
-8789	-5265.6934
-9076	-5266.1553
-9639	-5267.9253
-9659	-5270.7173
-9124	-5274.0093
-8779	-5277.133
-9044	-5279.4795
-9674	-5280.5703
-9719	-5280.2603
-9134	-5278.632
-8777	-5275.977
-9079	-5272.7764
-9642	-5269.6367
-9657	-5267.1973
-9114	-5265.9644
-8777	-5266.2295
-9049	-5268.1006
-9564	-5271.469
-9586	-5276.045
-9115	-5281.3677
-8792	-5286.8633
-9090	-5292.0
-9687	-5296.305
-9695	-5299.5347
-9130	-5301.6416
-8806	-5302.715
-9077	-5302.9526
-9641	-5302.755
-9679	-5302.6123
-9136	-5302.931
-8797	-5303.9844
-9082	-5305.909
-9643	-5308.6655
-9654	-5312.116
-9097	-5315.9976
-8811	-5319.947
-9146	-5323.743
-9721	-5327.266
-9690	-5330.5776
-9151	-5333.8394
-8854	-5337.2544
-9154	-5341.0044
-9279	-5345.261
-9054	-5349.9307
-9073	-5354.454
-8852	-5358.186
-9119	-5360.3535
-9715	-5360.191
-9741	-5357.2095
-9170	-5351.234
-8826	-5342.5127
-9116	-5331.8267
-9714	-5320.3613
-9747	-5309.615
-9201	-5301.067
-8878	-5295.945
-9158	-5295.056
-9726	-5298.6313
-9722	-5306.3647
-9175	-5317.3516
-8839	-5330.2744
-9116	-5343.719
-9698	-5356.364
-9710	-5367.2593
-9154	-5375.8125
-8820	-5381.816
-9122	-5385.461
-9707	-5387.1445
-9726	-5387.3955
-9162	-5386.6426
-8870	-5385.114
-9172	-5382.948
-9752	-5380.2295
-9747	-5377.1157
-9184	-5373.8916
-8881	-5370.997
-9174	-5369.1113
-9735	-5369.005
-9707	-5371.4434
-9147	-5376.865
-8853	-5385.2163
-9192	-5395.9243
-9768	-5407.894
-9766	-5419.694
-9204	-5429.675
-8902	-5436.3154
-9211	-5438.5835
-9781	-5436.1426
-9787	-5429.4775
-9221	-5419.7607
-8720	-5408.6777
-8566	-5398.192
-9202	-5389.9565
-9637	-5385.1514
-9147	-5384.379
-8973	-5387.417
-9277	-5393.518
-9838	-5401.55
-9809	-5410.3457
-9271	-5418.86
-8975	-5426.3984
-9256	-5432.7563
-9822	-5438.078
-9833	-5442.7188
-9293	-5446.945
-8990	-5450.731
-9328	-5453.7153
-9884	-5455.2515
-9859	-5454.5825
-9304	-5451.002
-8995	-5444.19
-9276	-5434.4727
-9842	-5422.8857
-9842	-5411.0996
-9267	-5401.0586
-8946	-5394.6
-9257	-5393.064
-9800	-5396.9033
-9820	-5405.5254
-9267	-5417.301
-8959	-5429.844
-9296	-5440.5894
-9859	-5447.3364
-9842	-5448.833
-9303	-5445.023
-9007	-5437.0938
-9277	-5427.3564
-9846	-5418.63
-9840	-5413.661
-9292	-5414.3047
-9001	-5421.025
-9274	-5432.736
-9834	-5446.86
-9839	-5459.8774
-9332	-5467.954
-9009	-5467.812
-9299	-5457.563
-9892	-5437.1733
-9845	-5408.6714
-8873	-5375.8613
-8093	-5343.5596
-8376	-5316.734
-9267	-5299.6045
-9718	-5294.944
-9280	-5303.622
-9085	-5324.3916
-9367	-5354.312
-9991	-5389.297
-9975	-5424.9395
-9395	-5457.1826
-9050	-5482.9473
-9161	-5500.568
-9719	-5509.689
-9928	-5511.14
-9356	-5506.5264
-9050	-5497.7305
-9341	-5486.5723
-9945	-5474.5327
-9931	-5462.8213
-9349	-5452.2773
-9032	-5443.4014
-9349	-5436.791
-9913	-5433.0684
-9771	-5432.882
-9211	-5436.5596
-9084	-5443.9116
-9367	-5454.2075
-9925	-5466.0005
-9919	-5477.3613
-9352	-5486.115
-9047	-5490.3306
-9355	-5488.902
-9915	-5481.9277
-9920	-5470.917
-9348	-5458.525
-9026	-5448.0854
-9343	-5442.91
-9896	-5445.432
-9888	-5456.5107
-9338	-5474.9077
-9043	-5497.314
-9360	-5518.884
-9907	-5534.1064
-9927	-5537.988
-9391	-5527.143
-9082	-5500.671
-9411	-5460.6455
-9972	-5411.896
-9929	-5361.327
-9376	-5316.5986
-9079	-5284.7275
-9404	-5270.858
-10001	-5277.298
-9937	-5303.2188
-9399	-5344.718
-9097	-5395.8027
-9415	-5449.5933
-9987	-5499.4937
-9968	-5540.524
-9428	-5569.8926
-9133	-5587.18
-9416	-5594.114
-9988	-5593.7305
-9983	-5589.4976
-9406	-5584.372
-9111	-5580.147
-9425	-5577.34
-9994	-5575.3394
-9988	-5572.9644
-9408	-5569.0195
-9109	-5562.8647
-9416	-5554.875
-9985	-5546.3325
-9963	-5539.106
-9404	-5534.998
-9127	-5535.095
-9434	-5539.391
-9982	-5546.5815
-10008	-5554.3394
-9442	-5559.913
-9129	-5560.8955
-9423	-5556.1074
-9986	-5546.1455
-10011	-5533.493
-9429	-5522.037
-9124	-5516.109
-9402	-5519.385
-9954	-5533.6035
-9974	-5557.738
-9445	-5587.6123
-9141	-5616.373
-9427	-5635.69
-9989	-5637.4175
-9990	-5615.4775
-9452	-5567.404
-9145	-5495.364
-9456	-5406.348
-10033	-5311.245
-9984	-5223.19
-9373	-5155.221
-9083	-5117.896
-9388	-5117.392
-10021	-5154.2275
-10037	-5223.1626
-9457	-5314.194
-9167	-5414.3022
-9477	-5509.6064
-10016	-5588.085
-10004	-5641.5527
-9441	-5666.6997
-9179	-5665.29
-9470	-5643.442
-10032	-5609.9834
-10021	-5574.51
-9449	-5545.34
-9148	-5528.037
-9456	-5524.6553
-10029	-5533.7344
-10004	-5551.1567
-9452	-5571.3193
-9194	-5588.6494
-9503	-5598.9937
-10067	-5600.422
-10056	-5593.538
-9555	-5580.991
-9241	-5566.682
-9535	-5554.7026
-10103	-5548.26
-10093	-5548.946
-9534	-5556.378
-9214	-5568.395
-9521	-5581.757
-10061	-5592.9854
-10010	-5599.2734
-9477	-5599.1133
-9238	-5592.6094
-9534	-5581.5347
-10087	-5568.7324
-10053	-5557.5044
-9496	-5550.713
-9219	-5550.1606
-9549	-5556.2656
-10074	-5567.976
-10062	-5583.116
-9529	-5598.87
-9242	-5612.4585
-9530	-5621.801
-10062	-5625.878
-10041	-5624.917
-9439	-5620.1904
-9064	-5613.636
-9292	-5607.4053
-9900	-5603.3066
-10006	-5602.6045
-9552	-5605.541
-9264	-5611.3896
-9579	-5618.9053
-10122	-5626.5654
-10078	-5632.9766
-9567	-5637.1104
-9279	-5638.4883
-9557	-5637.2646
-10087	-5634.0537
-10114	-5629.7524
-9578	-5625.2744
-9283	-5621.315
-9596	-5618.294
-10123	-5616.348
-10067	-5615.3706
-9514	-5615.1006
-9260	-5615.245
-9589	-5615.6704
-10161	-5616.349
-10128	-5617.425
-9558	-5619.0063
-9308	-5621.075
-9616	-5623.494
-10152	-5625.937
-10111	-5627.9526
-9546	-5629.007
-9234	-5628.637
-9523	-5626.6406
-10101	-5623.1426
-10081	-5618.663
-9482	-5613.972
-9227	-5609.927
-9541	-5607.368
-10074	-5606.8516
-10072	-5608.589
-9503	-5612.2485
-9282	-5617.044
-9574	-5621.953
-10137	-5625.8716
-10105	-5627.914
-9563	-5627.5435
-9304	-5624.6997
-9586	-5619.902
-10158	-5614.1133
-10110	-5608.6035
-9482	-5604.6113
-9133	-5603.073
-9373	-5604.5835
-9998	-5609.1777
-10056	-5616.3154
-9607	-5624.882
-9346	-5633.465
-9616	-5640.7925
-10157	-5645.8193
-10150	-5647.99
-9609	-5647.2197
-9336	-5643.8813
-9657	-5638.811
-10205	-5633.0645
-10167	-5627.8374
-9606	-5624.1533
-9342	-5622.667
-9651	-5623.8306
-10217	-5627.734
-10107	-5634.27
-9531	-5642.99
-9341	-5653.269
-9624	-5664.443
-10169	-5675.7583
-10197	-5686.4434
-9593	-5695.69
-9301	-5702.7114
-9631	-5706.8394
-10182	-5707.5195
-10173	-5704.596
-9628	-5698.2646
-9287	-5689.183
-9612	-5678.4795
-10227	-5667.645
-10144	-5658.412
-9592	-5652.36
-9341	-5650.6445
-9644	-5653.8066
-10166	-5661.541
-10123	-5672.6675
-9576	-5685.175
-9306	-5696.508
-9629	-5704.075
-10173	-5705.644
-10131	-5699.8394
-9531	-5686.4106
-9292	-5666.3433
-9629	-5641.863
-10200	-5616.1133
-10156	-5592.6914
-9544	-5575.004
-9137	-5565.745
-9335	-5566.4443
-9959	-5577.1636
-10055	-5596.5757
-9639	-5622.0923
-9392	-5650.4233
-9659	-5678.0713
-10216	-5701.8906
-10202	-5719.61
-9617	-5730.0396
-9357	-5733.1675
-9686	-5730.1177
-10217	-5722.765
-10178	-5713.4233
-9652	-5704.2993
-9392	-5697.16
-9676	-5693.198
-10257	-5692.8345
-10265	-5695.8516
-9680	-5701.49
-9448	-5708.631
-9781	-5716.1226
-10303	-5722.8896
-10259	-5728.091
-9707	-5731.0435
-9444	-5731.266
-9781	-5728.519
-10291	-5722.721
-10250	-5714.0376
-9702	-5702.8335
-9459	-5689.726
-9731	-5675.745
-10238	-5662.2314
-10214	-5650.7627
-9642	-5642.9014
-9393	-5639.9243
-9770	-5642.6245
-10316	-5651.015
-10244	-5664.2627
-9707	-5680.561
-9462	-5697.3716
-9790	-5711.87
-10318	-5721.3613
-10262	-5723.8447
-9692	-5718.3384
-9441	-5705.1304
-9787	-5685.9175
-10334	-5663.5293
-10278	-5641.53
-9681	-5623.532
-9274	-5612.6396
-9482	-5610.92
-10089	-5618.9707
-10173	-5635.9307
-9777	-5659.549
-9505	-5686.681
-9834	-5713.8794
-10404	-5737.935
-10376	-5756.443
-9763	-5768.0737
-9496	-5772.657
-9810	-5771.127
-10343	-5765.1616
-10286	-5756.8184
-9733	-5748.007
-9511	-5740.1597
-9839	-5734.148
-10375	-5730.1895
-10324	-5728.059
-9765	-5727.182
-9524	-5726.9434
-9843	-5726.974
-10373	-5727.146
-10332	-5727.6416
-9751	-5728.738
-9487	-5730.6123
-9826	-5733.245
-10375	-5736.2964
-10331	-5739.1724
-9757	-5741.0264
-9490	-5741.0254
-9872	-5738.6455
-10405	-5733.873
-10319	-5727.315
-9793	-5720.0356
-9566	-5713.385
-9907	-5708.738
-10399	-5707.0586
-10354	-5708.644
-9806	-5712.868
-9542	-5718.2065
-9859	-5722.5806
-10429	-5723.681
-10359	-5719.6064
-9777	-5709.2305
-9553	-5692.582
-9918	-5671.065
-10416	-5647.288
-10366	-5624.674
-9786	-5606.802
-9401	-5596.7573
-9651	-5596.552
-10116	-5606.717
-10054	-5626.2026
-9732	-5652.383
-9588	-5681.703
-9945	-5710.334
-10504	-5734.8726
-10458	-5752.9507
-9879	-5763.5386
-9636	-5767.056
-9972	-5765.203
-10511	-5760.512
-10428	-5755.802
-9867	-5753.521
-9606	-5755.2295
-9921	-5761.505
-10474	-5771.819
-10412	-5784.8516
-9866	-5798.741
-9627	-5811.5483
-9957	-5821.7197
-10490	-5828.2803
-10454	-5830.9683
-9895	-5830.071
-9651	-5826.2534
-9966	-5820.3647
-10524	-5813.144
-10458	-5805.2056
-9882	-5796.9077
-9655	-5788.4785
-9992	-5780.2734
-10528	-5772.861
-10455	-5767.1353
-9909	-5764.1445
-9643	-5764.911
-9997	-5770.201
-10500	-5780.137
-10441	-5793.957
-9904	-5809.9136
-9675	-5825.3594
-9993	-5837.261
-10541	-5842.6396
-10479	-5839.315
-9922	-5826.3564
-9685	-5804.459
-10004	-5776.087
-10536	-5745.1133
-10478	-5716.3066
-9869	-5694.363
-9542	-5683.0967
-9294	-5684.866
-9626	-5699.785
-10321	-5725.688
-9882	-5758.781
-9743	-5794.0845
-10051	-5826.555
-10613	-5851.9043
-10557	-5867.495
-10021	-5872.5947
-9742	-5868.435
-10066	-5857.888
-10588	-5844.6714
-10522	-5832.578
-9994	-5824.5444
-9748	-5822.1157
-10039	-5825.295
-10565	-5832.5854
-10497	-5841.5894
-9952	-5849.5664
-9711	-5854.21
-10056	-5854.2812
-10569	-5849.802
-10493	-5842.128
-9934	-5833.433
-9677	-5826.123
-10008	-5822.3013
-10527	-5823.1206
-10472	-5828.5693
-9924	-5837.3936
-9709	-5847.463
-10034	-5856.4375
-10562	-5862.381
-10486	-5864.323
-9911	-5862.451
-9698	-5858.141
-10090	-5853.616
-10615	-5851.2754
-10546	-5853.028
-9964	-5859.562
-9732	-5869.9834
-10071	-5881.9204
-10585	-5891.89
-10531	-5896.108
-9988	-5891.3013
-9746	-5875.627
-10095	-5849.349
-10589	-5814.989
-10527	-5777.0674
-9980	-5741.3
-9189	-5713.7056
-8726	-5699.4062
-9675	-5701.2607
-10382	-5719.6597
-10001	-5752.407
-9871	-5794.954
-10192	-5841.4004
-10741	-5885.558
-10627	-5922.1265
-10058	-5947.451
-9825	-5960.056
-10181	-5960.779
-10704	-5952.2666
-10602	-5938.319
-10042	-5922.891
-9816	-5909.3267
-10145	-5899.857
-10664	-5895.3237
-10598	-5895.4014
-10058	-5898.8745
-9831	-5904.199
-10164	-5910.1304
-10684	-5915.939
-10612	-5921.545
-10068	-5927.279
-9831	-5933.503
-10149	-5940.3467
-10662	-5947.315
-10583	-5953.3315
-10053	-5956.8516
-9861	-5956.3184
-10211	-5950.8115
-10709	-5940.4937
-10632	-5926.9185
-10094	-5912.858
-9879	-5901.8286
-10236	-5897.3926
-10704	-5902.149
-10619	-5916.8813
-10086	-5939.9336
-9848	-5967.206
-10167	-5992.717
-10667	-6009.629
-10616	-6011.6665
-10085	-5994.495
-9887	-5956.9067
-10236	-5901.484
-10731	-5834.4507
-10667	-5764.811
-9612	-5702.899
-8662	-5658.455
-8829	-5638.7427
-9908	-5647.1543
-10701	-5682.732
-10135	-5740.411
-10049	-5811.7188
-10292	-5886.6367
-10839	-5955.3027
-10746	-6009.82
-10153	-6045.3677
-9897	-6060.7837
-10240	-6058.3887
-10804	-6043.043
-10757	-6020.8696
-10211	-5997.774
-9954	-5978.2563
-10293	-5964.787
-10832	-5957.622
-10732	-5955.3223
-10144	-5955.462
-9909	-5955.5864
-10234	-5954.0947
-10786	-5950.558
-10702	-5945.8394
-10134	-5941.489
-9921	-5939.111
-10267	-5939.738
-10822	-5943.258
-10750	-5948.4062
-10201	-5952.9897
-9974	-5954.649
-10281	-5951.768
-10781	-5944.203
-10733	-5933.645
-10178	-5923.4746
-9989	-5918.0103
-10310	-5921.4443
-10792	-5936.4375
-10742	-5963.0234
-10214	-5997.904
-9974	-6034.588
-10295	-6064.3867
-10843	-6078.0195
-10777	-6067.6733
-10184	-6028.878
-9940	-5961.9453
-10286	-5872.6216
-10684	-5771.4834
-10611	-5672.3535
-10129	-5589.9346
-9718	-5537.2
-9904	-5522.974
-10557	-5550.1543
-10731	-5615.233
-10211	-5708.92
-9993	-5817.84
-10359	-5926.9863
-10902	-6022.4814
-10829	-6093.935
-10292	-6135.9097
-10037	-6148.429
-10367	-6136.3984
-10901	-6108.043
-10850	-6072.909
-10284	-6039.7866
-10041	-6015.0493
-10359	-6001.8384
-10901	-5999.9487
-10787	-6006.6514
-10232	-6017.7847
-10022	-6029.1597
-10377	-6037.7715
-10894	-6042.3506
-10819	-6043.47
-10265	-6042.882
-10014	-6042.6665
-10342	-6044.4097
-10860	-6048.4663
-10799	-6053.8696
-10259	-6058.526
-10026	-6060.0854
-10355	-6056.9014
-10889	-6048.8066
-10820	-6037.604
-10247	-6026.7627
-10017	-6020.628
-10372	-6023.235
-10884	-6036.8647
-10847	-6060.9062
-10262	-6091.261
-10026	-6120.6284
-10380	-6139.685
-10907	-6138.9644
-10827	-6111.041
-10282	-6052.492
-10050	-5965.2637
-10409	-5857.1353
-10897	-5740.813
-10811	-5632.077
-10204	-5547.035
-9847	-5499.2324
-9987	-5497.186
-10623	-5542.502
-10827	-5629.791
-10296	-5747.4175
-10068	-5879.2236
-10399	-6007.892
-10932	-6117.699
-10871	-6197.214
-10334	-6240.804
-10090	-6249.1577
-10432	-6228.5693
-10946	-6189.178
-10866	-6142.672
-10337	-6099.8364
-10108	-6068.6235
-10390	-6053.1025
-10931	-6053.1475
-10869	-6065.27
-10288	-6083.853
-10056	-6102.7886
-10388	-6117.0645
-10936	-6123.743
-10880	-6122.422
-10305	-6114.898
-10063	-6104.346
-10398	-6094.3633
-10963	-6087.8813
-10903	-6086.504
-10326	-6090.1675
-10089	-6097.3853
-10439	-6105.8887
-10946	-6113.386
-10871	-6118.299
-10297	-6120.139
-10089	-6119.5625
-10417	-6118.0933
-10943	-6117.446
-10873	-6118.8486
-10319	-6122.405
-10096	-6126.834
-10463	-6129.6797
-10961	-6127.8193
-10903	-6118.343
-10342	-6099.379
-10112	-6070.8354
-10451	-6034.8438
-10963	-5995.5713
-10881	-5958.641
-10278	-5930.077
-9942	-5915.1265
-10087	-5917.1885
-10726	-5937.078
-10966	-5972.9575
-10441	-6020.2607
-10107	-6072.5806
-10476	-6123.1094
-10986	-6165.754
-10879	-6196.2124
-10311	-6212.498
-10124	-6215.117
-10481	-6206.766
-10988	-6191.547
-10896	-6174.0
-10339	-6158.146
-10103	-6146.737
-10443	-6140.9614
-10964	-6140.411
-10914	-6143.5176
-10126	-6148.1514
-9852	-6152.149
-10487	-6153.9473
-11004	-6152.9736
-10908	-6149.6353
-10322	-6144.982
-10119	-6140.3296
-10506	-6136.8525
-11022	-6135.2104
-10917	-6135.4253
-10309	-6136.856
-10070	-6138.4653
-10179	-6139.3354
-10701	-6138.832
-10937	-6136.974
-10382	-6134.562
-10144	-6132.827
-10500	-6133.2065
-11099	-6136.7666
-11042	-6143.8677
-10431	-6153.8213
-10218	-6164.795
-10582	-6174.164
-11146	-6178.969
-11044	-6176.626
-10471	-6165.482
-10236	-6145.314
-10590	-6117.6562
-11142	-6085.606
-11008	-6053.485
-10356	-6026.0347
-9967	-6007.5156
-10109	-6001.1543
-10731	-6008.407
-10799	-6028.6895
-10234	-6059.3667
-9985	-6096.1577
-10302	-6134.3325
-10840	-6169.161
-10723	-6196.8896
-10085	-6215.0845
-9829	-6222.954
-10185	-6221.3647
-10690	-6212.453
-10568	-6199.149
-9969	-6184.503
-9726	-6171.1406
-10080	-6160.9546
-10627	-6154.8804
-10532	-6152.9663
-9935	-6154.5225
-9705	-6158.4277
-10082	-6163.5254
-10649	-6168.8115
-10546	-6173.6904
-9943	-6177.8413
-9721	-6181.161
-10122	-6183.7183
-10652	-6185.535
-10549	-6186.586
-9977	-6186.695
-9752	-6185.6587
-10121	-6183.416
-10674	-6180.157
-10582	-6176.4595
-9977	-6173.1772
-9744	-6171.288
-10123	-6171.776
-10657	-6175.261
-10558	-6181.8433
-9990	-6190.849
-9786	-6200.8164
-10156	-6209.733
-10672	-6215.342
-10572	-6215.6562
-10005	-6209.2715
-9761	-6195.834
-10138	-6176.2827
-10683	-6152.8027
-10567	-6128.5996
-9946	-6107.3755
-9608	-6092.691
-9845	-6087.328
-10465	-6092.774
-10527	-6108.9526
-10010	-6134.0376
-9772	-6164.697
-10135	-6196.7495
-10667	-6225.7554
-10549	-6247.798
-9967	-6260.0186
-9733	-6261.105
-10089	-6251.522
-10662	-6233.34
-10571	-6209.941
-9989	-6185.3076
-9765	-6163.3745
-10147	-6147.4697
-10672	-6139.7383
-10551	-6140.9336
-9976	-6150.246
-9742	-6165.56
-10136	-6183.915
-10717	-6201.9463
-10615	-6216.571
-10011	-6225.367
-9762	-6226.938
-10171	-6221.1646
-10727	-6209.2104
-10585	-6193.361
-9996	-6176.6064
-9788	-6162.216
-10161	-6153.385
-10709	-6152.732
-10614	-6162.0063
-10031	-6181.7285
-9801	-6211.107
-10193	-6248.1123
-10721	-6289.675
-10632	-6331.995
-10056	-6370.936
-9806	-6402.4766
-10155	-6423.254
-10662	-6430.9585
-10604	-6424.642
-10059	-6404.7783
-9827	-6373.244
-10186	-6333.104
-10748	-6288.151
-10637	-6242.4795
-9967	-6199.8364
-9558	-6163.1475
-9841	-6134.1616
-10562	-6113.2065
-10577	-6099.456
-10010	-6090.9497
-9872	-6084.955
-10249	-6078.7544
-10803	-6069.9614
-10667	-6057.039
-10127	-6039.3594
-9887	-6017.333
-10237	-5992.2974
-10761	-5966.1685
-10682	-5941.1167
-10121	-5919.1074
-9925	-5901.587
-10268	-5889.3564
-10785	-5882.5146
-10682	-5880.5815
-10110	-5882.624
-9901	-5887.4756
-10266	-5894.0654
-10772	-5901.4995
-10671	-5909.1855
-10142	-5916.7056
-9918	-5923.77
-10262	-5930.1924
-10775	-5935.7373
-10685	-5940.169
-10141	-5943.198
-9903	-5944.6167
-10269	-5944.5015
-10806	-5943.2236
-10757	-5941.5293
-10169	-5940.4116
-9899	-5940.889
-10288	-5943.838
-10871	-5949.6587
-10822	-5958.1504
-10341	-5968.3193
-10174	-5978.46
-10538	-5986.512
-11081	-5990.3457
-11068	-5988.252
-10627	-5979.313
-10486	-5963.69
-10904	-5942.797
-11541	-5919.058
-11556	-5895.6455
-11002	-5875.853
-10654	-5862.5205
-10847	-5857.5815
-11456	-5861.5444
-11639	-5873.5977
-11285	-5891.5967
-11244	-5912.4644
-11602	-5933.0083
-12151	-5950.375
-12064	-5962.58
-11579	-5968.737
-11320	-5969.199
-11609	-5965.375
-12102	-5959.273
-12047	-5953.0815
-11384	-5948.655
-11073	-5947.126
-11504	-5948.757
-11947	-5953.049
-11853	-5958.95
-11345	-5965.132
-11076	-5970.384
-11314	-5974.065
-11757	-5976.0483
-11659	-5976.6807
-11142	-5976.67
-10893	-5976.797
-10984	-5977.727
-11386	-5979.6094
-11547	-5982.087
-11056	-5984.4526
-10759	-5985.853
-11049	-5985.6196
-11521	-5983.47
-11453	-5979.8193
-10971	-5975.582
-10746	-5971.963
-11012	-5970.3228
-11477	-5971.6113
-11452	-5976.0522
-10972	-5982.8164
-10725	-5990.1133
-10993	-5995.532
-11442	-5996.398
-11402	-5990.4478
-10935	-5976.372
-10678	-5954.3135
-10934	-5926.092
-11411	-5894.922
-11366	-5865.0063
-10856	-5840.7197
-10481	-5825.9272
-10044	-5823.3086
-10226	-5833.54
-11141	-5855.101
-10868	-5884.9043
-10757	-5918.609
-11015	-5951.609
-11459	-5979.75
-11439	-6000.0957
-10974	-6011.2817
-10726	-6013.672
-10956	-6009.111
-11446	-6000.2744
-11428	-5990.045
-10959	-5980.7983
-10714	-5973.9966
-10982	-5970.04
-11411	-5968.305
-11384	-5967.548
-10938	-5966.3413
-10703	-5963.6445
-10916	-5959.1875
-11319	-5953.457
-11302	-5947.5625
-10914	-5942.8027
-10699	-5940.2827
-10928	-5940.5386
-11364	-5943.1714
-11379	-5946.9443
-10942	-5950.092
-10707	-5950.9355
-10916	-5948.537
-11364	-5943.1445
-11366	-5936.5107
-10949	-5931.736
-10686	-5932.8804
-10885	-5944.183
-11342	-5968.988
-11354	-6008.9653
-10927	-6063.4956
-10702	-6129.64
-10910	-6202.5767
-11322	-6276.4194
-11381	-6345.3945
-10972	-6405.0957
-10749	-6453.46
-10973	-6491.3325
-11382	-6522.248
-11397	-6551.7334
-10883	-6586.0737
-10055	-6631.021
-9420	-6690.385
-10279	-6764.608
-11197	-6850.8257
-10994	-6943.3066
-10887	-7034.2866
-11050	-7115.575
-11494	-7179.9224
-11511	-7222.3867
-11094	-7241.132
-10856	-7237.6245
-11077	-7216.146
-11471	-7182.6704
-11469	-7143.491
-11088	-7103.8945
-10879	-7067.3027
-11049	-7034.8438
-11404	-7005.44
-11417	-6976.4985
-11076	-6944.9697
-10841	-6908.4824
-11040	-6866.2026
-11411	-6819.119
-11444	-6769.8975
-11054	-6722.23
-10832	-6679.9277
-10988	-6646.0264
-11390	-6621.8677
-11463	-6606.7686
-11079	-6598.313
-10859	-6593.064
-11046	-6587.605
-11441	-6579.4243
-11452	-6567.714
-11069	-6553.5806
-10844	-6539.807
-11053	-6530.0327
-11391	-6527.4453
-11444	-6533.576
-11056	-6547.4673
-10826	-6565.3486
-11045	-6581.174
-11402	-6587.6196
-11449	-6577.6763
-11077	-6546.4043
-10847	-6492.3965
-11048	-6418.6426
-11432	-6332.388
-11404	-6244.138
-10692	-6165.943
-10083	-6109.2495
-10102	-6082.7383
-10763	-6090.5747
-11349	-6131.6235
-11149	-6199.7334
-11004	-6284.8867
-11105	-6375.2075
-11533	-6458.8765
-11569	-6526.3003
-11167	-6571.5176
-10639	-6592.9644
-10734	-6593.0747
-11534	-6577.1255
-11565	-6552.0146
-11164	-6524.3984
-10955	-6499.4946
-11137	-6480.3687
-11524	-6467.7036
-11579	-6460.3345
-11214	-6456.164
-10974	-6453.205
-11112	-6450.407
-11513	-6447.8726
-11562	-6446.742
-11143	-6448.591
-10914	-6454.6416
-11126	-6465.03
-11524	-6478.308
-11558	-6491.54
-11184	-6500.9175
-10955	-6502.8477
-11107	-6495.1763
-11457	-6477.992
-11524	-6454.096
-11133	-6428.722
-10934	-6408.507
-11129	-6399.9995
-11504	-6407.78
-11566	-6432.8765
-11197	-6471.927
-10962	-6517.3076
-11182	-6558.3013
-11575	-6583.0127
-11606	-6580.9253
-11260	-6545.3403
-11014	-6475.338
-11150	-6376.6187
-11546	-6260.901
-11600	-6144.2437
-11156	-6044.2656
-10799	-5977.054
-10804	-5954.199
-11224	-5980.5244
-11542	-6053.196
-11334	-6162.2534
-10989	-6292.532
-11172	-6426.43
-11577	-6546.955
-11651	-6640.6694
-11284	-6699.6475
-11084	-6722.362
-11216	-6713.282
-11575	-6681.2715
-11659	-6637.3877
-11311	-6592.4907
-11049	-6555.2783
-11222	-6531.021
-11584	-6521.1187
-11640	-6523.5186
-11279	-6534.0073
-11043	-6547.656
-11187	-6560.2095
-11591	-6568.9165
-11635	-6572.9395
-11251	-6573.0327
-11009	-6570.9146
-11159	-6568.437
-11551	-6566.743
-11622	-6565.9907
-11253	-6565.3438
-11044	-6563.383
-11179	-6558.9995
-11534	-6551.9565
-11577	-6543.2817
-11237	-6535.215
-11024	-6530.752
-11171	-6532.739
-11539	-6542.753
-11647	-6560.243
-11326	-6582.0684
-11073	-6602.788
-11198	-6615.5156
-11561	-6613.3276
-11664	-6590.8604
-11293	-6545.881
-11081	-6480.2715
-11229	-6400.2075
-11540	-6315.4146
-11669	-6237.557
-11386	-6178.1636
-11003	-6146.558
-10796	-6148.0415
-11161	-6182.5684
-11576	-6244.998
-11347	-6326.017
-11124	-6413.484
-11246	-6495.296
-11562	-6561.356
-11726	-6605.282
-11406	-6625.3804
-11141	-6624.524
-11210	-6609.207
-11546	-6587.7666
-11741	-6568.4736
-11442	-6557.803
-11153	-6559.194
-11284	-6572.6816
-11620	-6595.1333
-11766	-6621.3247
-11470	-6645.3867
-11212	-6662.286
-11296	-6668.982
-11598	-6664.9165
-11734	-6651.9287
-11466	-6633.639
-11208	-6614.422
-11267	-6598.2603
-11579	-6587.807
-11781	-6583.8457
-11494	-6585.3745
-11226	-6590.121
-11276	-6595.4067
-11590	-6598.935
-11772	-6599.549
-11486	-6597.5796
-11192	-6594.741
-11304	-6593.5947
-11632	-6596.6475
-11801	-6605.485
-11499	-6620.1113
-11207	-6638.6953
-11290	-6657.7915
-11627	-6672.976
-11792	-6679.8184
-11534	-6675.0156
-11282	-6657.276
-11332	-6627.874
-11626	-6590.5156
-11795	-6550.7603
-11537	-6515.039
-11106	-6489.466
-10897	-6478.616
-11411	-6484.5522
-11827	-6506.6978
-11448	-6541.671
-11258	-6583.9136
-11352	-6627.2427
-11670	-6665.7876
-11879	-6695.0337
-11602	-6712.536
-11351	-6718.152
-11385	-6713.8223
-11679	-6702.8647
-11881	-6689.089
-11591	-6675.991
-11304	-6666.0786
-11392	-6660.4697
-11687	-6658.8853
-11847	-6659.9355
-11555	-6661.7524
-11310	-6662.5234
-11373	-6661.0234
-11683	-6656.878
-11861	-6650.526
-11571	-6643.0684
-11334	-6635.82
-11394	-6629.96
-11676	-6626.089
-11878	-6624.119
-11626	-6623.373
-11379	-6622.852
-11436	-6621.6836
-11705	-6619.4087
-11890	-6616.22
-11639	-6613.0693
-11361	-6611.4424
-11429	-6612.9526
-11741	-6618.826
-11947	-6629.3604
-11652	-6643.7383
-11402	-6659.8975
-11459	-6674.897
-11739	-6685.3467
-11949	-6688.12
-11691	-6681.128
-11452	-6663.867
-11521	-6637.7163
-11781	-6605.808
-11974	-6572.5156
-11687	-6542.79
-11286	-6521.2437
-11083	-6511.4087
-11421	-6514.91
-11855	-6531.224
-11670	-6557.8647
-11251	-6590.851
-11329	-6625.596
-11858	-6657.6606
-12058	-6683.6685
-11765	-6701.718
-11504	-6711.5967
-11557	-6714.6094
-11828	-6713.175
-12044	-6710.061
-11762	-6707.616
-11494	-6707.5176
-11563	-6710.3936
-11820	-6715.777
-12035	-6722.36
-11787	-6728.51
-11509	-6732.7573
-11547	-6734.2236
-11837	-6732.821
-12059	-6729.212
-11800	-6724.646
-11524	-6720.5557
-11564	-6718.173
-11831	-6718.1235
-12061	-6720.213
-11804	-6723.59
-11536	-6726.9717
-11591	-6729.0874
-11864	-6729.037
-12061	-6726.6284
-11809	-6722.542
-11552	-6718.185
-11559	-6715.4263
-11852	-6715.958
-12060	-6720.7793
-11824	-6729.853
-11556	-6741.8667
-11593	-6754.428
-11849	-6764.3955
-12024	-6768.521
-11778	-6764.2803
-11531	-6750.48
-11557	-6727.7515
-11832	-6698.5576
-12056	-6666.8745
-11810	-6637.5547
-11417	-6615.499
-11216	-6604.7627
-11555	-6607.61
-11987	-6624.1553
-11754	-6652.3936
-11504	-6688.431
-11566	-6727.3325
-11886	-6764.0234
-12092	-6794.0884
-11816	-6814.5713
-11567	-6824.3213
-11584	-6824.1177
-11821	-6816.1777
-12074	-6803.591
-11849	-6789.6426
-11611	-6777.14
-11627	-6767.951
-11877	-6762.8037
-12107	-6761.3086
-11884	-6762.3843
-11638	-6764.695
-11694	-6767.146
-11951	-6769.128
-12137	-6770.649
-11929	-6772.2344
-11677	-6774.675
-11677	-6778.6987
-11907	-6784.5566
-12099	-6791.8413
-11860	-6799.534
-11605	-6806.267
-11620	-6810.736
-11904	-6812.039
-12119	-6810.0806
-11904	-6805.741
-11634	-6800.8057
-11674	-6797.583
-11943	-6798.3354
-12140	-6804.61
-11896	-6816.759
-11622	-6833.5913
-11637	-6852.447
-11930	-6869.5337
-12147	-6880.604
-11918	-6881.8994
-11646	-6870.958
-11684	-6847.367
-11931	-6812.9937
-12149	-6771.805
-11914	-6729.416
-11447	-6692.1147
-11217	-6665.772
-11597	-6654.6836
-11989	-6660.943
-11827	-6684.0303
-11671	-6720.773
-11754	-6766.174
-12070	-6814.2266
-12232	-6858.9585
-11992	-6895.4746
-11697	-6920.623
-11737	-6933.426
-11995	-6934.9917
-12207	-6928.0215
-11979	-6916.1714
-11677	-6903.1597
-11692	-6892.162
-11941	-6885.2646
-12197	-6883.1694
-11981	-6885.467
-11696	-6890.844
-11721	-6897.648
-12004	-6904.301
-12209	-6909.645
-12001	-6913.1875
-11762	-6914.972
-11759	-6915.5127
-11632	-6915.512
-11747	-6915.4478
-11971	-6915.4165
-11728	-6915.3145
-11779	-6914.8354
-12011	-6913.668
-12217	-6911.6934
-11972	-6909.16
-11719	-6906.646
-11779	-6904.9736
-12033	-6904.9634
-12281	-6907.024
-11995	-6910.984
-11751	-6915.825
-11787	-6919.8726
-12024	-6920.992
-12251	-6917.027
-12032	-6906.3857
-11772	-6888.4893
-11817	-6864.1436
-12047	-6835.5864
-12284	-6806.169
-12028	-6779.925
-11588	-6760.7383
-11341	-6751.7046
-11626	-6754.339
-12024	-6768.373
-11894	-6791.684
-11733	-6820.621
-11813	-6850.9497
-12119	-6878.484
-12349	-6899.918
-12124	-6913.4897
-11849	-6919.1255
-11886	-6918.4595
-12127	-6914.285
-12342	-6909.832
-12104	-6908.0796
-11815	-6910.976
-11817	-6919.153
-12069	-6931.8
-12293	-6946.9043
-12090	-6961.8945
-11839	-6974.1665
-11843	-6981.835
-12078	-6984.0557
-12291	-6981.134
-12083	-6974.426
-11786	-6965.8486
-11797	-6957.3745
-12056	-6950.5176
-12307	-6945.944
-12136	-6943.4824
-11866	-6942.235
-11834	-6941.0654
-12054	-6939.0376
-12294	-6935.81
-12091	-6931.972
-11832	-6928.84
-11846	-6928.1973
-12052	-6931.693
-12246	-6940.171
-12019	-6953.1973
-11794	-6968.772
-11863	-6983.5894
-12084	-6993.5356
-12287	-6994.551
-12082	-6983.663
-11818	-6959.7886
-11802	-6924.379
-12052	-6881.415
-12307	-6836.846
-12087	-6797.718
-11092	-6770.922
-9986	-6761.7803
-10784	-6772.462
-12017	-6801.944
-11924	-6846.2427
-11789	-6898.675
-11907	-6951.429
-12204	-6997.0684
-12398	-7029.8184
-12154	-7046.6196
-11895	-7047.624
-11936	-7035.9897
-12186	-7016.9697
-12392	-6996.625
-12166	-6980.4478
-11889	-6972.0864
-11916	-6972.6895
-12157	-6980.7803
-12357	-6992.7007
-12146	-7003.755
-11882	-7009.3286
-11922	-7006.1846
-12111	-6993.2803
-12312	-6972.016
-12093	-6945.933
-11864	-6919.86
-11866	-6898.8374
-12077	-6886.9316
-12365	-6886.271
-12149	-6896.775
-11862	-6916.1323
-11894	-6940.571
-12178	-6965.813
-12388	-6988.107
-12140	-7005.1216
-11861	-7016.307
-11865	-7022.873
-12143	-7027.1743
-12371	-7031.807
-12150	-7038.7124
-11894	-7048.2793
-11924	-7059.12
-12152	-7068.241
-12376	-7071.693
-12157	-7065.6875
-11897	-7047.6533
-11941	-7017.207
-12138	-6976.637
-12378	-6930.701
-12104	-6885.9795
-11173	-6849.714
-10131	-6828.363
-10884	-6825.871
-12184	-6843.2534
-12032	-6878.5703
-11907	-6926.834
-12016	-6981.339
-12338	-7034.8765
-12527	-7081.082
-12257	-7115.522
-11991	-7136.1826
-12009	-7143.627
-12256	-7140.368
-12483	-7129.988
-12271	-7116.251
-12021	-7102.089
-12057	-7089.282
-12297	-7078.372
-12515	-7068.999
-12308	-7060.5522
-11995	-7052.709
-11991	-7045.8887
-12225	-7041.326
-12437	-7040.673
-12242	-7045.4487
-11956	-7056.214
-11976	-7072.04
-12234	-7090.297
-12467	-7106.969
-12240	-7117.521
-11956	-7117.9746
-11984	-7106.2007
-12267	-7082.849
-12473	-7051.6675
-12284	-7019.091
-11987	-6992.9614
-12007	-6980.7495
-12247	-6987.618
-12467	-7014.638
-12240	-7057.911
-11991	-7108.5977
-12009	-7154.263
-12241	-7181.119
-12482	-7176.8296
-12312	-7133.3984
-12026	-7049.2974
-12042	-6930.5396
-12292	-6790.2603
-12512	-6646.7446
-12266	-6520.486
-11864	-6430.508
-11629	-6390.9424
-12043	-6408.349
-12476	-6480.638
-12214	-6597.463
-12022	-6742.0073
-12086	-6894.328
-12372	-7034.843
-12552	-7147.6494
-12281	-7222.9946
-12050	-7258.279
-12072	-7257.7505
-12312	-7230.826
-12568	-7189.508
-12329	-7145.7847
-12054	-7109.101
-12079	-7084.9736
-12336	-7074.586
-12584	-7075.3984
-12347	-7082.672
-12083	-7091.1177
-12124	-7096.6074
-12165	-7097.2866
-12351	-7093.6226
-12341	-7087.9673
-12086	-7083.4775
-12139	-7082.8115
-12400	-7087.073
-12604	-7095.237
-12365	-7104.6074
-12117	-7111.4087
-12150	-7112.097
-12407	-7104.8506
-12616	-7090.4497
-12391	-7072.4824
-12157	-7056.573
-12177	-7049.085
-12417	-7055.228
-12624	-7077.156
-12360	-7112.838
-12119	-7155.5137
-12179	-7194.6973
-12429	-7217.9854
-12624	-7213.67
-12395	-7173.5747
-12132	-7095.295
-12162	-6983.535
-12419	-6850.0454
-12624	-6711.9536
-12409	-6589.0767
-12008	-6500.307
-11776	-6460.231
-12123	-6476.244
-12542	-6547.215
-12334	-6663.617
-12136	-6809.119
-12231	-6963.704
-12524	-7107.2397
-12721	-7222.925
-12448	-7299.9897
-12191	-7334.9907
-12238	-7331.82
-12503	-7300.1753
-12732	-7253.0293
-12473	-7203.863
-12204	-7163.7905
-12219	-7139.796
-12486	-7133.8623
-12702	-7143.288
-12471	-7162.075
-12227	-7182.707
-12287	-7198.2812
-12506	-7204.1343
-12679	-7198.6826
-12482	-7183.588
-12224	-7162.8765
-12254	-7141.764
-12497	-7125.2114
-12749	-7116.606
-12486	-7117.154
-12197	-7125.588
-12250	-7138.842
-12501	-7152.9756
-12722	-7164.303
-12482	-7170.409
-12210	-7170.5576
-12263	-7165.876
-12539	-7158.8594
-12744	-7152.5166
-12505	-7149.454
-12228	-7150.969
-12247	-7156.671
-12507	-7164.524
-12723	-7171.3145
-12507	-7173.574
-12282	-7168.465
-12288	-7154.683
-12519	-7132.9443
-12751	-7105.944
-12506	-7077.9653
-12109	-7053.934
-11864	-7038.384
-12210	-7034.5483
-12654	-7043.887
-12447	-7065.358
-12278	-7095.603
-12380	-7130.2095
-12627	-7164.342
-12825	-7193.6636
-12601	-7215.1167
-12341	-7227.289
-12377	-7230.5034
-12613	-7226.4673
-12818	-7217.649
-12607	-7206.7046
-12362	-7195.7803
-12357	-7186.255
-12633	-7178.628
-12827	-7172.714
-12591	-7168.053
-12377	-7164.1875
-12390	-7161.137
-12614	-7159.4614
-12844	-7160.111
-12601	-7164.243
-12355	-7172.622
-12391	-7185.3643
-12649	-7201.6606
-12864	-7219.756
-12599	-7237.3467
-12326	-7251.8306
-12343	-7261.1006
-12610	-7264.0186
-12816	-7260.766
-12554	-7252.899
-12320	-7242.9614
-12364	-7234.0093
-12639	-7228.8516
-12859	-7229.2754
-12603	-7235.5957
-12304	-7246.3384
-12367	-7258.546
-12647	-7268.345
-12873	-7271.792
-12631	-7265.861
-12374	-7249.109
-12404	-7222.2607
-12662	-7188.2764
-12863	-7151.8193
-12569	-7118.608
-12192	-7094.1567
-12006	-7082.8477
-12351	-7087.047
-12754	-7106.8604
-12524	-7139.742
-12362	-7180.7983
-12109	-7224.465
-12328	-7265.0283
-12929	-7297.6553
-12553	-7319.4683
-12342	-7329.5254
-12445	-7329.018
-12739	-7320.748
-12923	-7308.3916
-12664	-7295.7163
-12406	-7285.7095
-12433	-7280.1914
-12671	-7279.592
-12896	-7283.0576
-12649	-7288.9736
-12410	-7295.3433
-12430	-7300.4414
-12699	-7303.231
-12894	-7303.478
-12657	-7301.734
-12442	-7298.954
-12436	-7296.221
-12707	-7294.37
-12899	-7293.6855
-12649	-7293.9336
-12416	-7294.347
-12441	-7294.0874
-12703	-7292.5337
-12896	-7289.579
-12687	-7285.8076
-12422	-7282.3667
-12476	-7280.718
-12751	-7282.25
-12947	-7287.6987
-12702	-7296.899
-12461	-7308.401
-12474	-7319.7383
-12738	-7327.794
-12959	-7329.42
-12682	-7322.209
-12451	-7305.058
-12515	-7278.7065
-12774	-7245.8555
-12953	-7210.802
-12734	-7178.8423
-12319	-7155.292
-12082	-7144.583
-12415	-7149.2944
-12837	-7169.7515
-12651	-7203.853
-12497	-7247.275
-12569	-7294.479
-12812	-7339.561
-13007	-7377.259
-12721	-7403.8784
-12469	-7417.759
-12512	-7419.4907
-12771	-7411.5786
-12986	-7397.7793
-12751	-7382.3745
-12507	-7369.1304
-12514	-7360.795
-12686	-7358.6455
-12885	-7362.332
-12724	-7370.3086
-12476	-7380.1743
-12524	-7389.454
-12776	-7396.0825
-12955	-7398.803
-12699	-7397.4365
-12479	-7392.6113
-12551	-7385.5024
-12811	-7377.5415
-12991	-7369.964
-12750	-7363.588
-12500	-7358.5996
-12559	-7354.7617
-12790	-7351.6084
-13007	-7348.7285
-12766	-7346.0747
-12527	-7343.9893
-12559	-7343.2686
-12808	-7344.896
-13012	-7349.6797
-12774	-7357.9478
-12546	-7369.102
-12557	-7381.618
-12806	-7393.117
-13001	-7400.652
-12806	-7401.3613
-12524	-7392.9214
-12549	-7374.2725
-12846	-7345.8857
-13048	-7309.9404
-12760	-7270.121
-12388	-7231.0454
-12169	-7197.631
-12506	-7174.1665
-12877	-7163.7866
-12688	-7167.897
-12509	-7185.82
-12555	-7215.2104
-12836	-7252.357
-13011	-7292.8267
-12781	-7332.234
-12534	-7366.788
-12573	-7393.8667
-12859	-7412.2266
-13051	-7421.968
-12810	-7424.3457
-12561	-7421.255
-12593	-7414.9404
-12802	-7407.5293
-13014	-7400.685
-12844	-7395.5503
-12599	-7392.614
-12587	-7391.939
-12839	-7393.206
-13046	-7395.8965
-12842	-7399.4595
-12607	-7403.3096
-12641	-7406.8955
-12873	-7409.761
-13075	-7411.467
-12812	-7411.803
-12594	-7410.613
-12677	-7408.1187
-12904	-7404.8774
-13152	-7401.773
-12945	-7399.9688
-12671	-7400.6357
-12697	-7404.7534
-12935	-7412.79
-13122	-7424.417
-12899	-7438.438
-12404	-7452.804
-12392	-7464.808
-12950	-7471.503
-13177	-7470.4272
-12957	-7460.043
-12680	-7440.143
-12736	-7412.185
-12969	-7379.1675
-13136	-7345.298
-12918	-7315.335
-12508	-7293.7744
-12299	-7284.096
-12618	-7288.0435
-12971	-7305.3657
-12795	-7333.7876
-12676	-7369.213
-12766	-7406.733
-13032	-7441.2925
-13216	-7468.5845
-12966	-7485.7744
-12711	-7491.8013
-12782	-7487.4795
-13000	-7475.186
-13180	-7458.253
-12928	-7440.3213
-12717	-7424.5356
-12780	-7413.1143
-12961	-7407.1084
-13162	-7406.3564
-12956	-7409.8228
-12747	-7415.898
-12788	-7423.025
-12994	-7429.992
-13192	-7436.15
-12972	-7441.465
-12733	-7446.2285
-12782	-7450.889
-12979	-7455.762
-13169	-7460.729
-12939	-7465.345
-12712	-7468.7803
-12742	-7470.282
-12957	-7469.392
-13160	-7466.226
-12960	-7461.6357
-12740	-7457.0146
-12769	-7454.141
-12986	-7454.6304
-13182	-7459.4224
-12947	-7468.4404
-12713	-7480.291
-12773	-7492.421
-13019	-7501.5522
-13190	-7504.292
-12961	-7497.9272
-12722	-7481.0474
-12794	-7454.143
-13036	-7419.694
-13193	-7381.846
-12982	-7345.8105
-12591	-7316.8364
-11730	-7299.5176
-11569	-7296.494
-12893	-7307.8735
-12794	-7331.804
-12702	-7364.265
-12817	-7400.2437
-13124	-7434.5034
-13299	-7462.7627
-13017	-7482.3633
-12749	-7492.358
-12802	-7493.9175
-13079	-7489.612
-13211	-7482.6934
-13011	-7476.302
-12784	-7472.659
-12818	-7472.7114
-13064	-7476.0547
-13248	-7481.1978
-13004	-7486.228
-12736	-7489.371
-12781	-7489.7197
-13039	-7487.513
-13222	-7484.138
-12985	-7481.8057
-12749	-7482.774
-12812	-7488.798
-13065	-7500.4214
-13242	-7516.686
-13033	-7535.2065
-12779	-7552.574
-12827	-7565.244
-13059	-7570.3423
-13256	-7566.4834
-13045	-7554.2627
-12770	-7536.1797
-12797	-7516.221
-13041	-7498.97
-13255	-7488.5093
-13034	-7487.433
-12812	-7496.05
-12856	-7512.269
-13074	-7531.925
-13234	-7549.636
-13023	-7560.0537
-12788	-7559.0786
-12839	-7544.9463
-13083	-7518.798
-13229	-7484.5376
-13009	-7448.2007
-12029	-7416.8486
-10842	-7397.0664
-11637	-7393.1074
-12974	-7406.4946
-12847	-7435.8438
-12704	-7476.725
-12856	-7522.8896
-13202	-7567.4575
-13361	-7604.376
-13065	-7629.5137
-12846	-7641.2563
-12936	-7640.6694
-13153	-7630.987
-13284	-7616.631
-13057	-7602.151
-12824	-7591.084
-12872	-7585.4155
-13089	-7585.3027
-13241	-7589.313
-13010	-7595.1953
-12813	-7600.5073
-12875	-7603.4917
-13108	-7603.572
-13277	-7601.3345
-12991	-7598.2925
-12781	-7596.1187
-12878	-7596.058
-13133	-7598.347
-13319	-7601.9736
-13117	-7604.9336
-12927	-7604.769
-12999	-7599.5103
-13239	-7588.495
-13483	-7572.844
-13306	-7555.6772
-13141	-7541.447
-13284	-7535.0264
-13632	-7540.3496
-13952	-7559.0737
-13873	-7589.672
-13764	-7627.0933
-13929	-7663.377
-14241	-7688.968
-14509	-7694.602
-14370	-7673.4014
-14151	-7622.597
-14241	-7544.6694
-14508	-7447.4097
-14734	-7342.8833
-14459	-7245.5347
-13363	-7169.759
-12086	-7127.256
-12987	-7124.3022
-14446	-7161.161
-14302	-7232.2725
-14154	-7326.828
-14222	-7431.1714
-14499	-7531.226
-14629	-7614.98
-14315	-7674.4033
-14036	-7706.3584
-14008	-7712.6475
-14174	-7698.959
-14278	-7673.125
-13994	-7643.2974
-13742	-7616.157
-13733	-7595.9023
-13937	-7583.903
-14065	-7579.096
-13819	-7579.0205
-13510	-7580.876
-13505	-7582.68
-13699	-7583.8086
-13818	-7585.0137
-13561	-7587.9014
-13313	-7593.934
-13351	-7603.6577
-13567	-7616.0537
-13696	-7628.445
-13421	-7637.1133
-13180	-7638.2246
-13206	-7629.267
-13434	-7610.1055
-13611	-7583.5522
-13400	-7555.2866
-13003	-7532.679
-13031	-7523.059
-13440	-7531.6914
-13578	-7559.962
-13322	-7604.1953
-13049	-7655.5273
-13091	-7701.124
-13368	-7726.5977
-13547	-7718.8877
-13287	-7669.224
-13030	-7575.663
-13062	-7444.323
-13281	-7289.0527
-13474	-7129.3755
-13247	-6987.4043
-12853	-6883.893
-12611	-6834.44
-13020	-6846.5776
-13437	-6918.4487
-13174	-7039.172
-13004	-7190.7095
-13084	-7351.4253
-13366	-7499.835
-13541	-7618.322
-13226	-7695.856
-12990	-7729.1875
-13049	-7722.605
-13314	-7686.223
-13482	-7633.244
-13245	-7577.104
-13027	-7528.742
-13065	-7495.0054
-13304	-7478.0513
-13512	-7475.869
-13266	-7483.8613
-13057	-7496.424
-13081	-7508.8223
-13311	-7518.2817
-13504	-7524.295
-13241	-7528.38
-13008	-7532.9424
-13095	-7540.2686
-13331	-7551.6636
-13497	-7567.0312
-13265	-7585.2563
-13035	-7604.9644
-13099	-7625.756
-13361	-7649.215
-13512	-7679.3877
-13239	-7722.5
-13042	-7785.6045
-13141	-7874.8306
-13401	-7993.218
-13571	-8138.8613
-13304	-8303.932
-13106	-8474.787
-13159	-8633.686
-13398	-8761.572
-13585	-8841.498
-13303	-8862.229
-13106	-8820.7295
-13193	-8723.695
-13399	-8586.96
-13495	-8433.21
-13316	-8288.242
-12970	-8176.521
-12681	-8116.8623
-13044	-8118.8345
-13436	-8181.495
-13249	-8293.609
-13092	-8435.155
-13174	-8581.988
-13417	-8709.949
-13577	-8799.141
-13333	-8837.222
-13118	-8820.987
-13181	-8756.341
-13417	-8656.354
-13558	-8538.201
-13332	-8419.549
-13106	-8315.245
-13144	-8234.842
-13422	-8181.4785
-13641	-8152.2554
-13355	-8139.7437
-13094	-8134.202
-13193	-8126.173
-13417	-8108.5874
-13566	-8078.048
-13363	-8035.144
-13141	-7983.719
-13219	-7929.5825
-13476	-7878.871
-13617	-7836.478
-13347	-7805.075
-13143	-7784.7393
-13207	-7773.3257
-13469	-7767.419
-13636	-7763.375
-13361	-7758.425
-13144	-7751.177
-13221	-7741.882
-13494	-7732.0513
-13613	-7723.631
-13337	-7718.228
-13119	-7716.2295
-13192	-7716.5474
-13441	-7716.769
-13614	-7713.6426
-13386	-7704.075
-13180	-7685.9717
-13251	-7659.061
-13493	-7625.287
-13635	-7588.562
-13388	-7554.1626
-13049	-7527.612
-12821	-7513.5083
-13272	-7514.5005
-13724	-7531.0103
-13328	-7560.608
-13175	-7598.2915
-13296	-7638.218
-13571	-7674.5166
-13734	-7702.4634
-13465	-7719.288
-13250	-7724.5586
-13302	-7720.1323
-13539	-7709.469
-13696	-7696.758
-13469	-7685.978
-13267	-7679.9604
-13310	-7679.9683
-13562	-7685.605
-13722	-7695.079
-13479	-7705.899
-13261	-7715.5083
-13297	-7721.9966
-13554	-7724.545
-13725	-7723.4653
-13469	-7720.0903
-13264	-7716.1714
-13294	-7713.475
-13550	-7713.1904
-13739	-7715.6567
-13492	-7720.444
-13265	-7726.427
-13298	-7732.3467
-13526	-7737.246
-13704	-7740.7954
-13480	-7743.5728
-13297	-7746.754
-13344	-7751.901
-13591	-7760.351
-13782	-7772.676
-13559	-7788.292
-13361	-7805.2373
-13391	-7820.495
-13613	-7830.47
-13775	-7831.7505
-13496	-7821.9814
-13301	-7800.409
-13426	-7768.3853
-13668	-7729.345
-13811	-7688.292
-13577	-7651.05
-13167	-7623.155
-12846	-7608.8853
-13226	-7610.441
-13673	-7627.828
-13444	-7658.3633
-13340	-7697.0483
-13449	-7738.2607
-13716	-7776.41
-13846	-7806.953
-13610	-7827.047
-13382	-7835.935
-13443	-7834.883
-13703	-7826.6753
-13868	-7814.918
-13592	-7803.237
-13393	-7794.445
-13456	-7790.2236
-13699	-7790.8726
-13834	-7795.519
-13546	-7802.5415
-13340	-7810.062
-13422	-7816.4883
-13656	-7820.94
-13801	-7823.318
-13557	-7824.2544
-13370	-7824.6997
-13457	-7825.634
-13682	-7827.685
-13859	-7830.862
-13614	-7834.5845
-13055	-7837.8545
-13015	-7839.502
-13715	-7838.534
-13858	-7834.742
-13598	-7828.688
-13366	-7821.6084
-13435	-7815.223
-13653	-7811.3228
-13796	-7811.2036
-13579	-7815.196
-13365	-7822.4966
-13426	-7831.2637
-13471	-7838.9683
-13627	-7842.8066
-13584	-7840.4536
-13350	-7830.6875
-13422	-7813.785
-13684	-7791.6997
-13844	-7767.687
-13564	-7745.9014
-13147	-7730.4893
-12915	-7724.8286
-13309	-7730.7603
-13781	-7748.304
-13552	-7775.579
-13406	-7808.9814
-13462	-7844.152
-13724	-7876.591
-13911	-7902.5474
-13657	-7919.669
-13456	-7927.239
-13517	-7926.3115
-13759	-7919.233
-13912	-7909.0522
-13677	-7898.894
-13453	-7891.187
-13497	-7887.3564
-13729	-7887.595
-13902	-7891.0176
-13666	-7896.076
-13438	-7900.936
-13514	-7904.09
-13775	-7904.6934
-13912	-7902.7183
-13673	-7898.9
-13463	-7894.3516
-13531	-7890.3115
-13794	-7887.7515
-13929	-7887.06
-13669	-7888.102
-13486	-7890.1646
-13544	-7892.4355
-13789	-7894.277
-13927	-7895.5513
-13676	-7896.8022
-13489	-7899.0884
-13556	-7903.8257
-13824	-7912.2397
-13947	-7924.8735
-13709	-7941.2246
-13487	-7959.416
-13556	-7976.467
-13780	-7988.651
-13910	-7992.2266
-13675	-7984.3174
-13481	-7963.564
-13528	-7930.8276
-13797	-7889.2515
-13953	-7843.9536
-13696	-7801.3613
-13364	-7768.051
-13150	-7749.6475
-13524	-7749.624
-13907	-7768.8057
-13624	-7805.068
-13502	-7853.4565
-13611	-7907.3486
-13866	-7959.4614
-13997	-8003.1865
-13742	-8033.691
-13522	-8048.593
-13577	-8048.337
-13846	-8035.853
-14013	-8015.764
-13763	-7993.458
-13571	-7973.825
-13633	-7960.4263
-13829	-7954.881
-13982	-7956.7124
-13785	-7963.677
-13574	-7972.377
-13613	-7979.249
-13836	-7981.34
-13994	-7976.9087
-13781	-7965.8413
-13563	-7949.501
-13613	-7930.3896
-13863	-7911.532
-14024	-7895.7617
-13772	-7885.2046
-13588	-7880.801
-13662	-7882.3613
-13874	-7888.6855
-14056	-7897.97
-13809	-7908.2793
-13573	-7917.9385
-13640	-7925.8506
-13896	-7931.535
-14048	-7934.9814
-13819	-7936.4326
-13632	-7935.9814
-13691	-7933.47
-13916	-7928.3696
-14055	-7919.847
-13846	-7907.176
-13642	-7889.954
-13705	-7868.648
-13949	-7844.717
-14112	-7820.6265
-13852	-7799.646
-13389	-7785.33
-13106	-7780.8667
-13491	-7788.293
-13893	-7808.2485
-13766	-7839.5
-13643	-7879.036
-13752	-7922.6953
-14029	-7965.7026
-14176	-8003.4355
-13912	-8032.285
-13686	-8050.066
-13754	-8056.477
-13974	-8052.914
-14133	-8042.116
-13874	-8027.5986
-13712	-8012.8555
-13774	-8000.8296
-13954	-7993.461
-14112	-7991.41
-13920	-7994.2476
-13677	-8000.621
-13731	-8008.7974
-13947	-8017.073
-14132	-8024.102
-13921	-8029.1445
-13693	-8032.0186
-13739	-8033.0684
-13976	-8032.842
-14122	-8031.9575
-13900	-8030.8706
-13702	-8029.7676
-13757	-8028.7036
-14012	-8027.673
-14141	-8026.746
-13919	-8026.192
-13710	-8026.3755
-13780	-8027.781
-14003	-8030.7153
-14155	-8035.156
-13934	-8040.535
-13701	-8045.649
-13762	-8048.8247
-14000	-8048.165
-14167	-8042.0024
-13913	-8029.31
-13723	-8010.0605
-13774	-7985.4995
-13994	-7958.0884
-14148	-7931.152
-13889	-7908.442
-13483	-7893.4478
-12569	-7888.8696
-12446	-7895.807
-13887	-7913.4
-13762	-7939.564
-13677	-7970.763
-13797	-8003.0566
-14184	-8032.603
-14343	-8056.452
-14035	-8072.965
-13799	-8081.8936
-13861	-8084.3086
-14067	-8082.175
-14213	-8077.7646
-13968	-8073.156
-13782	-8069.6714
-13859	-8067.8447
-14069	-8067.3853
-14200	-8067.4663
-13989	-8067.174
-13770	-8065.849
-13836	-8063.4956
-14088	-8060.7314
-14234	-8058.685
-14039	-8058.673
-13648	-8061.661
-13609	-8067.939
-14052	-8076.7607
-14274	-8086.5522
-14024	-8095.2266
-13779	-8100.6187
-13886	-8101.1445
-14106	-8096.5137
-14261	-8087.847
-14061	-8077.4634
-13878	-8068.684
-13868	-8064.9854
-14029	-8069.1025
-14125	-8082.097
-14008	-8102.866
-13843	-8128.052
-13909	-8152.542
-14099	-8170.3936
-14266	-8176.0107
-14036	-8165.581
-13819	-8137.9336
-13872	-8095.0776
-14118	-8042.2153
-14274	-7986.8813
-14084	-7937.6167
-13033	-7902.625
-11688	-7888.051
-12619	-7896.292
-14023	-7926.104
-13897	-7973.0093
-13833	-8029.685
-13941	-8087.8413
-14273	-8139.624
-14382	-8179.088
-14051	-8203.15
-13872	-8211.789
-13981	-8207.729
-14170	-8195.571
-14312	-8180.41
-14102	-8166.715
-13881	-8157.3145
-13929	-8153.045
-14167	-8152.897
-14341	-8154.621
-14221	-8155.7466
-13974	-8154.4224
-13916	-8150.184
-14157	-8144.065
-14315	-8138.291
-14051	-8135.6177
-13876	-8138.217
-13962	-8146.936
-14201	-8160.779
-14319	-8176.867
-14153	-8191.0957
-13959	-8199.172
-13922	-8197.972
-14176	-8186.5366
-14316	-8166.739
-14181	-8143.196
-14041	-8122.3237
-14064	-8110.9263
-14301	-8114.3154
-14378	-8134.6255
-14221	-8169.738
-14062	-8213.037
-14005	-8254.405
-14196	-8281.996
-14302	-8284.693
-14193	-8254.6875
-14041	-8189.56
-13999	-8093.482
-14248	-7976.924
-14375	-7855.226
-14097	-7746.0034
-13371	-7666.03
-12570	-7628.1357
-13242	-7638.3853
-14183	-7695.405
-13969	-7790.6807
-13891	-7909.893
-14051	-8036.014
-14333	-8152.289
-14432	-8245.214
-14167	-8306.691
-13998	-8334.832
-14071	-8333.633
-14281	-8311.397
-14422	-8278.397
-14208	-8244.489
-13994	-8217.02
-14032	-8199.761
-14244	-8192.681
-14394	-8192.818
-14222	-8195.797
-14015	-8197.433
-14026	-8195.237
-14265	-8189.0913
-14419	-8181.1846
-14301	-8175.144
-14090	-8174.659
-14036	-8182.1235
-14274	-8197.504
-14446	-8218.12
-14277	-8239.138
-14084	-8254.802
-14061	-8260.286
-14252	-8253.172
-14432	-8234.581
-14277	-8209.331
-14074	-8185.014
-14029	-8170.21
-14240	-8172.063
-14390	-8194.025
-14294	-8234.215
-14137	-8284.973
-14105	-8333.878
-14311	-8365.914
-14457	-8366.655
-14247	-8325.709
-14021	-8239.461
-14078	-8112.8193
-14257	-7959.101
-14413	-7798.18
-14159	-7653.2666
-13787	-7546.6475
-13586	-7495.591
-13954	-7508.939
-14330	-7585.5273
-14092	-7714.2354
-13949	-7875.9834
-14103	-8047.486
-14353	-8205.461
-14461	-8330.732
-14209	-8411.39
-14035	-8444.251
-14134	-8434.693
-14389	-8394.731
-14491	-8339.915
-14226	-8285.867
-14017	-8245.037
-14116	-8224.646
-14380	-8225.839
-14456	-8244.364
-14210	-8272.384
-14021	-8300.787
-13657	-8321.817
-13790	-8330.679
-14408	-8326.367
-14111	-8311.831
-13979	-8292.402
-14130	-8274.278
-14422	-8262.7705
-14550	-8260.8545
-14253	-8268.687
-14054	-8283.689
-14175	-8301.671
-14406	-8318.26
-14517	-8330.274
-14264	-8336.7
-14069	-8338.877
-14137	-8340.038
-14382	-8344.026
-14492	-8353.788
-14257	-8370.027
-14071	-8390.225
-14181	-8408.759
-14427	-8417.841
-14570	-8409.157
-14283	-8376.038
-14092	-8315.35
-14230	-8228.995
-14460	-8124.2715
-14559	-8013.1333
-14295	-7910.364
-13851	-7830.99
-13594	-7787.5103
-14021	-7787.295
-14445	-7831.4775
-14235	-7914.514
-14114	-8024.397
-14219	-8145.728
-14478	-8262.118
-14599	-8359.012
-14370	-8426.115
-14167	-8458.802
-14241	-8458.587
-14499	-8432.185
-14607	-8389.848
-14359	-8343.088
-14149	-8302.388
-14177	-8275.414
-14421	-8265.927
-14564	-8273.604
-14332	-8294.74
-14129	-8323.419
-14198	-8353.134
-14450	-8378.182
-14592	-8394.714
-14338	-8401.267
-14141	-8398.568
-14233	-8388.995
-14481	-8375.836
-14601	-8362.358
-14333	-8351.042
-14153	-8343.243
-14252	-8339.31
-14487	-8338.781
-14606	-8340.775
-14390	-8344.4795
-14154	-8349.328
-14249	-8355.133
-14489	-8361.874
-14647	-8369.443
-14404	-8377.337
-14224	-8384.331
-14270	-8388.566
-14517	-8387.778
-14678	-8379.748
-14407	-8362.906
-14208	-8336.728
-14306	-8302.219
-14534	-8261.977
-14666	-8219.918
-14399	-8180.828
-13971	-8149.534
-13691	-8130.1353
-14101	-8125.3516
-14533	-8136.4204
-14300	-8162.28
-14194	-8199.736
-14322	-8244.683
-14566	-8292.31
-14684	-8337.809
-14433	-8376.872
-14237	-8406.087
-14347	-8423.209
-14567	-8427.183
-14694	-8418.023
-14459	-8396.83
-14284	-8365.511
-14353	-8326.801
-14577	-8284.136
-14716	-8241.495
-14464	-8203.179
-14249	-8173.4185
-14333	-8155.917
-14588	-8153.3374
-14727	-8166.785
-14468	-8195.428
-14307	-8236.246
-14390	-8284.458
-14623	-8334.007
-14732	-8378.463
-14501	-8412.16
-14344	-8431.076
-14399	-8433.738
-14605	-8421.546
-14709	-8398.592
-14487	-8370.918
-14301	-8345.331
-14372	-8328.11
-14619	-8323.683
-14762	-8333.68
-14487	-8356.501
-14284	-8387.483
-14372	-8419.815
-14619	-8445.82
-14689	-8458.614
-14440	-8453.495
-14266	-8428.908
-14371	-8387.015
-14637	-8333.331
-14742	-8275.918
-14499	-8223.831
-14062	-8185.5034
-13815	-8167.1997
-14247	-8171.8784
-14708	-8198.948
-14468	-8244.16
-14362	-8300.35
-14482	-8359.293
-14689	-8412.969
-14791	-8454.873
-14541	-8481.089
-14343	-8490.601
-14391	-8485.252
-14628	-8468.982
-14755	-8446.854
-14532	-8423.985
-14344	-8404.552
-14402	-8391.183
-14686	-8384.724
-14803	-8384.48
-14541	-8388.704
-14357	-8395.184
-14466	-8401.9
-14731	-8407.524
-14832	-8411.607
-14554	-8414.419
-14347	-8416.629
-14454	-8418.909
-14700	-8421.651
-14796	-8424.776
-14544	-8427.702
-14354	-8429.527
-14474	-8429.495
-14712	-8427.373
-14822	-8423.691
-14555	-8419.851
-14368	-8417.708
-14466	-8419.27
-14671	-8426.085
-14767	-8438.646
-14531	-8455.989
-14360	-8475.504
-14446	-8493.353
-14689	-8505.056
-14819	-8506.443
-14556	-8494.571
-14345	-8468.457
-14431	-8429.565
-14686	-8381.843
-14829	-8331.158
-14573	-8284.462
-14186	-8248.508
-13976	-8228.702
-14381	-8228.086
-14764	-8246.867
-14518	-8282.425
-14423	-8329.563
-14563	-8381.814
-14823	-8432.43
-14925	-8475.509
-14637	-8507.028
-14455	-8525.17
-14546	-8530.549
-14805	-8525.664
-14937	-8514.27
-14658	-8500.471
-14461	-8487.854
-14263	-8479.052
-14451	-8475.249
-14875	-8476.253
-14569	-8481.063
-14387	-8488.113
-14527	-8495.877
-14794	-8503.188
-14887	-8509.584
-14638	-8515.109
-14444	-8519.855
-14511	-8524.122
-14748	-8527.905
-14887	-8530.86
-14612	-8532.34
-14441	-8531.559
-14510	-8528.016
-14756	-8521.718
-14855	-8513.402
-14591	-8504.527
-14409	-8496.958
-14497	-8492.6045
-14760	-8492.806
-14862	-8497.913
-14591	-8506.939
-14411	-8517.487
-14540	-8526.203
-14786	-8529.41
-14922	-8523.87
-14674	-8507.727
-14466	-8480.952
-14553	-8445.797
-14784	-8406.513
-14859	-8368.668
-14621	-8338.27
-14276	-8320.554
-14043	-8318.9795
-14446	-8334.398
-14772	-8365.007
-14544	-8406.472
-14485	-8452.644
-14597	-8496.977
-14880	-8533.569
-14957	-8558.336
-14712	-8569.589
-14541	-8568.213
-14629	-8557.385
-14840	-8541.66
-14937	-8526.016
-14676	-8514.698
-14529	-8510.405
-14652	-8513.889
-14867	-8523.949
-14947	-8537.956
-14652	-8552.577
-14498	-8564.601
-14644	-8571.78
-14875	-8573.317
-14955	-8569.891
-14704	-8563.373
-14570	-8556.132
-14692	-8550.465
-14885	-8547.904
-14969	-8548.783
-14691	-8552.247
-14512	-8556.476
-14656	-8559.347
-14869	-8559.084
-14956	-8554.847
-14686	-8547.096
-14517	-8537.438
-14609	-8528.393
-14865	-8522.597
-14959	-8522.084
-14705	-8527.557
-14564	-8537.907
-14677	-8550.37
-14847	-8561.0
-14943	-8565.46
-14722	-8560.116
-14507	-8542.972
-14646	-8514.439
-14877	-8477.572
-14951	-8437.702
-14686	-8401.555
-14306	-8376.016
-14106	-8366.769
-14462	-8377.007
-14771	-8406.851
-14627	-8453.0205
-14574	-8509.252
-14671	-8567.628
-14952	-8619.846
-15022	-8658.706
-14771	-8679.369
-14594	-8680.108
-14692	-8662.516
-14935	-8631.071
-15026	-8592.145
-14749	-8552.82
-14561	-8519.484
-14703	-8496.88
-14947	-8487.428
-15027	-8491.066
-14728	-8505.625
-14549	-8527.38
-14705	-8552.05
-14905	-8575.641
-15023	-8595.031
-14756	-8608.393
-14573	-8615.103
-14747	-8615.626
-14912	-8611.132
-14964	-8603.016
-14739	-8592.632
-14561	-8581.095
-14710	-8569.35
-14935	-8558.28
-15047	-8548.88
-14794	-8542.307
-14656	-8539.765
-14764	-8542.354
-14931	-8550.686
-15028	-8564.524
-14759	-8582.539
-14601	-8602.125
-14760	-8619.786
-14980	-8631.62
-15108	-8633.957
-14829	-8624.305
-14690	-8601.847
-14828	-8568.022
-15071	-8526.487
-15160	-8482.654
-14839	-8442.939
-14059	-8413.696
-13002	-8400.081
-13413	-8404.752
-14882	-8427.478
-14735	-8465.584
-14660	-8513.829
-14802	-8565.739
-15155	-8614.575
-15224	-8654.586
-14953	-8681.933
-14778	-8695.117
-14847	-8695.106
-15076	-8684.92
-15147	-8668.777
-14879	-8651.249
-14729	-8636.235
-14869	-8626.401
-15092	-8622.872
-15189	-8625.266
-14912	-8632.11
-14757	-8641.301
-14884	-8650.815
-15097	-8659.146
-15204	-8665.477
-14981	-8669.682
-14849	-8672.05
-15042	-8672.994
-15256	-8672.794
-15319	-8671.312
-15071	-8668.093
-14861	-8662.579
-15037	-8654.472
-15246	-8644.101
-15326	-8632.629
-15076	-8622.013
-14835	-8614.647
-15014	-8612.818
-15280	-8618.073
-15453	-8630.489
-15192	-8648.481
-14855	-8668.643
-15034	-8686.226
-15226	-8696.09
-15421	-8693.707
-15192	-8676.311
-14817	-8643.67
-14993	-8598.462
-15224	-8546.104
-15217	-8493.849
-14102	-8449.777
-12661	-8421.048
-12680	-8412.28
-13848	-8424.81
-15064	-8456.63
-14909	-8502.834
-14900	-8556.233
-15071	-8609.167
-15285	-8654.826
-15307	-8688.472
-15051	-8708.169
-14867	-8714.781
-14952	-8711.487
-15154	-8702.686
-15272	-8692.786
-15014	-8685.124
-14848	-8681.223
-15012	-8680.703
-15222	-8681.687
-15356	-8681.724
-15074	-8678.734
-14795	-8671.713
-15021	-8661.3955
-15255	-8650.192
-15287	-8641.472
-15043	-8638.552
-14857	-8643.586
-15006	-8656.677
-15255	-8675.611
-15387	-8696.038
-15132	-8712.591
-14850	-8720.171
-15026	-8715.532
-15217	-8698.501
-15370	-8672.422
-15177	-8643.817
-14823	-8621.074
-14986	-8612.386
-15203	-8623.727
-15327	-8656.747
-15106	-8707.806
-14799	-8767.93
-14994	-8824.108
-15203	-8861.748
-15341	-8867.556
-15094	-8832.693
-14802	-8754.958
-14979	-8639.9795
-15203	-8500.824
-15188	-8356.017
-14862	-8226.431
-14492	-8131.574
-14396	-8086.097
-14801	-8097.02
-15323	-8162.7217
-15137	-8273.275
-14773	-8412.376
-14983	-8560.463
-15230	-8698.26
-15251	-8810.066
-14982	-8885.999
-14776	-8923.086
-14964	-8924.878
-15197	-8899.953
-15237	-8859.542
-14971	-8815.102
-14813	-8776.111
-14962	-8748.831
-15168	-8735.897
-15219	-8736.847
-14969	-8749.153
-14796	-8769.546
-15007	-8795.004
-15249	-8823.445
-15270	-8853.616
-15012	-8884.662
-14795	-8915.351
-14997	-8943.607
-15234	-8966.359
-15269	-8979.972
-15007	-8981.271
-14839	-8968.676
-15061	-8943.386
-15291	-8910.057
-15287	-8876.375
-15025	-8851.907
-14856	-8845.966
-15031	-8865.094
-15207	-8910.82
-15283	-8978.067
-15063	-9054.954
-14859	-9124.137
-15007	-9165.675
-15234	-9160.903
-15272	-9096.499
-15047	-8968.02
-14873	-8781.884
-15064	-8555.463
-15309	-8315.026
-15359	-8091.671
-15006	-7916.181
-14617	-7813.605
-14519	-7798.7246
-14955	-7873.275
-15350	-8025.6772
-15066	-8233.056
-14927	-8465.178
-15138	-8689.981
-15398	-8879.042
-15396	-9012.234
-15103	-9080.48
-14946	-9086.411
-15136	-9042.743
-15375	-8968.92
-15437	-8886.734
-15134	-8815.892
-14962	-8770.352
-15154	-8756.473
-15387	-8772.696
-15401	-8811.027
-15115	-8859.704
-14956	-8906.31
-15142	-8940.7295
-15359	-8957.234
-15405	-8955.151
-15126	-8938.44
-14943	-8914.008
-15103	-8889.668
-15371	-8872.046
-15440	-8864.99
-15149	-8868.964
-14965	-8881.211
-15149	-8896.938
-15417	-8910.897
-15449	-8918.849
-15131	-8918.787
-14986	-8911.148
-15187	-8898.666
-15406	-8885.271
-15417	-8874.746
-15166	-8869.474
-15021	-8869.536
-15177	-8872.584
-15391	-8874.386
-15439	-8869.969
-15212	-8855.059
-14709	-8827.474
-14761	-8787.897
-15436	-8740.067
-15486	-8690.423
-15083	-8646.728
-14676	-8616.401
-14546	-8604.912
-14992	-8614.477
-15389	-8643.824
-15096	-8688.093
-14975	-8739.372
-15188	-8789.166
-15412	-8829.724
-15441	-8855.553
-15177	-8864.35
-15029	-8857.193
-15201	-8838.147
-15462	-8813.138
-15496	-8788.514
-15240	-8769.712
-15074	-8760.106
-15234	-8760.634
-15444	-8769.798
-15497	-8784.394
-15226	-8800.475
-15041	-8814.338
-15241	-8823.528
-15492	-8827.248
-15510	-8826.351
-15252	-8822.944
-15102	-8819.561
-15293	-8818.41
-15509	-8820.786
-15509	-8826.604
-15264	-8834.58
-15101	-8842.591
-15282	-8848.354
-15519	-8850.21
-15532	-8847.589
-15274	-8841.293
-15117	-8833.267
-15270	-8826.132
-15489	-8822.492
-15528	-8824.06
-15269	-8831.139
-15097	-8842.27
-15294	-8854.502
-15542	-8864.062
-15541	-8867.069
-15271	-8860.596
-15125	-8843.37
-15323	-8816.323
-15557	-8782.7705
-15547	-8747.678
-15166	-8716.932
-14767	-8696.099
-14658	-8689.557
-15098	-8699.581
-15503	-8725.665
-15252	-8764.6455
-15158	-8811.228
-15398	-8859.3955
-15637	-8903.288
-15610	-8938.175
-15341	-8961.184
-15141	-8971.609
-15337	-8970.816
-15585	-8961.74
-15646	-8948.144
-15381	-8933.813
-15221	-8921.714
-15387	-8913.649
-15577	-8910.163
-15584	-8910.544
-15337	-8913.383
-15144	-8916.956
-15316	-8919.827
-15576	-8921.191
-15649	-8920.887
-15364	-8919.446
-15162	-8917.742
-15348	-8916.671
-15596	-8916.927
-15649	-8918.719
-15399	-8921.837
-15199	-8925.673
-15384	-8929.566
-15607	-8933.035
-15631	-8935.88
-15351	-8938.317
-15186	-8940.681
-15368	-8943.321
-15590	-8946.339
-15602	-8949.194
-15328	-8950.646
-15178	-8948.808
-15359	-8941.477
-15611	-8926.757
-15623	-8903.424
-15332	-8871.578
-15208	-8832.758
-15398	-8790.12
-15640	-8748.107
-15647	-8711.714
-15295	-8685.76
-14929	-8674.025
-14820	-8678.545
-15249	-8699.129
-15623	-8733.448
-15366	-8777.463
-15272	-8825.844
-15479	-8873.165
-15706	-8914.826
-15716	-8947.517
-15456	-8969.727
-15289	-8981.734
-15465	-8985.29
-15688	-8983.113
-15694	-8978.12
-15449	-8972.863
-15274	-8969.066
-15434	-8967.495
-15186	-8968.183
-15069	-8970.42
-15419	-8973.243
-15315	-8976.046
-15477	-8978.66
-15745	-8981.398
-15746	-8984.892
-15454	-8989.782
-15305	-8996.326
-15499	-9004.167
-15707	-9012.316
-15749	-9019.174
-15492	-9023.033
-15282	-9022.488
-15463	-9016.935
-15676	-9007.007
-15739	-8994.475
-15469	-8982.165
-15286	-8973.26
-15472	-8970.604
-15744	-8975.93
-15777	-8989.199
-15470	-9008.402
-15297	-9029.601
-15468	-9047.626
-15687	-9057.085
-15717	-9053.421
-15519	-9034.065
-15377	-8999.103
-15532	-8951.597
-15739	-8897.313
-15758	-8843.745
-15408	-8798.9375
-15003	-8770.01
-14952	-8761.854
-15384	-8776.197
-15734	-8811.339
-15502	-8862.471
-15374	-8922.41
-15514	-8983.141
-15794	-9037.119
-15843	-9078.527
-15562	-9104.139
-15380	-9113.62
-15561	-9109.243
-15819	-9095.212
-15794	-9076.537
-15513	-9058.001
-15372	-9043.156
-15544	-9033.977
-15777	-9030.621
-15824	-9031.834
-15562	-9035.5625
-15323	-9039.711
-15519	-9042.712
-15782	-9044.021
-15827	-9044.081
-15562	-9044.084
-15366	-9045.377
-15524	-9048.9795
-15784	-9055.068
-15817	-9062.781
-15552	-9070.356
-15344	-9075.524
-15535	-9076.212
-15776	-9071.221
-15793	-9060.674
-15533	-9046.216
-15388	-9030.73
-15528	-9017.826
-15801	-9010.858
-15829	-9012.051
-15561	-9021.759
-15361	-9038.063
-15515	-9056.966
-15794	-9073.101
-15883	-9080.817
-15592	-9075.538
-15388	-9054.878
-15587	-9019.435
-15809	-8973.222
-15820	-8923.04
-15437	-8877.243
-15025	-8844.415
-14882	-8831.669
-15357	-8843.01
-15731	-8878.527
-15504	-8934.14
-15399	-9002.027
-15620	-9072.182
-15891	-9134.05
-15866	-9178.349
-15579	-9198.79
-15418	-9193.016
-15595	-9163.032
-15846	-9114.712
-15906	-9056.68
-15634	-8998.682
-15456	-8949.937
-15627	-8917.547
-15829	-8905.6
-15857	-8914.608
-15635	-8941.854
-15455	-8982.09
-15663	-9028.738
-15859	-9075.122
-15967	-9115.483
-15744	-9145.803
-15466	-9164.175
-15602	-9170.623
-15816	-9166.831
-16004	-9155.454
-15775	-9139.642
-15456	-9122.467
-15650	-9106.527
-15866	-9093.865
-16017	-9085.864
-15781	-9083.338
-15509	-9086.583
-15725	-9095.285
-15881	-9108.59
-16039	-9124.889
-15822	-9141.983
-15478	-9157.086
-15706	-9167.103
-15931	-9169.116
-16034	-9160.904
-15811	-9141.503
-15490	-9111.637
-15695	-9073.789
-15924	-9032.162
-15942	-8992.062
-15549	-8959.181
-15094	-8938.603
-14284	-8934.059
-14196	-8946.869
-15707	-8975.516
-15517	-9016.511
-15516	-9064.361
-15735	-9112.874
-15999	-9156.127
-15996	-9189.419
-15714	-9210.047
-15528	-9217.568
-15748	-9213.638
-15971	-9201.561
-15961	-9185.374
-15711	-9169.042
-15542	-9155.642
-15698	-9146.951
-15932	-9143.33
-15939	-9143.8955
-15719	-9147.067
-15556	-9151.089
-15738	-9154.555
-15970	-9156.779
-15996	-9157.776
-15751	-9158.137
-15559	-9158.549
-15750	-9159.492
-15971	-9160.932
-16002	-9162.197
-15789	-9162.174
-15602	-9159.71
-15774	-9154.082
-15952	-9145.529
-16131	-9135.298
-15916	-9125.727
-15581	-9119.732
-15751	-9120.0205
-15992	-9128.345
-15975	-9144.767
-15692	-9167.23
-15510	-9191.611
-15722	-9212.321
-15944	-9223.39
-16103	-9219.642
-15857	-9198.061
-15534	-9158.674
-15744	-9104.869
-15978	-9043.131
-15963	-8982.015
-15591	-8930.711
-14459	-8897.441
-13649	-8887.745
-15031	-8902.948
-15830	-8940.708
-15579	-8995.16
-15636	-9057.828
-15850	-9119.676
-16076	-9172.65
-16096	-9211.084
-15781	-9232.652
-15597	-9238.362
-15814	-9232.037
-15789	-9219.248
-15911	-9205.624
-15987	-9195.712
-15579	-9192.179
-15774	-9195.229
-15984	-9203.122
-16013	-9212.818
-15777	-9221.333
-15604	-9226.544
-15814	-9227.687
-16031	-9225.925
-16060	-9223.714
-15421	-9224.119
-15151	-9229.489
-15843	-9240.565
-16067	-9256.312
-16069	-9273.7295
-15809	-9288.68
-15669	-9296.989
-15870	-9295.849
-16068	-9284.891
-16097	-9266.655
-15853	-9246.403
-15701	-9230.924
-15886	-9226.966
-16100	-9239.295
-16079	-9268.975
-15813	-9312.377
-15667	-9361.204
-15859	-9403.753
-16091	-9427.015
-16092	-9419.385
-15812	-9373.447
-15639	-9287.967
-15852	-9168.909
-16106	-9029.082
-16109	-8886.155
-14956	-8760.003
-13461	-8668.969
-13732	-8626.151
-15174	-8637.323
-15956	-8700.147
-15775	-8804.464
-15795	-8934.155
-15957	-9070.455
-16263	-9195.197
-16224	-9293.989
-15883	-9358.359
-15758	-9386.583
-15974	-9383.199
-16222	-9357.34
-16181	-9320.247
-15901	-9282.691
-15707	-9252.91
-15952	-9235.346
-16159	-9230.553
-16130	-9235.926
-15879	-9247.1875
-15722	-9259.966
-15927	-9271.194
-16154	-9279.878
-16142	-9286.923
-15840	-9294.45
-15688	-9304.565
-15914	-9318.274
-16119	-9334.7295
-16108	-9351.1045
-15850	-9363.286
-15683	-9367.044
-15898	-9359.597
-16102	-9340.866
-16103	-9313.989
-15864	-9285.06
-15674	-9261.861
-15874	-9251.8955
-16090	-9260.214
-16093	-9287.54
-15849	-9329.216
-15667	-9375.466
-15868	-9412.996
-16096	-9427.607
-16098	-9407.362
-15842	-9345.594
-15697	-9242.984
-15908	-9108.389
-16154	-8957.778
-16146	-8811.658
-15791	-8691.4795
-15422	-8615.559
-15366	-8595.648
-15926	-8634.593
-16305	-8725.948
-16111	-8855.257
-16130	-9002.756
-16439	-9147.475
-16801	-9270.971
-16941	-9360.441
-16765	-9410.566
-16693	-9423.52
-16964	-9407.618
-17294	-9374.664
-17330	-9336.876
-17103	-9304.166
-17007	-9282.197
-17256	-9271.867
-17480	-9270.088
-17501	-9271.425
-17299	-9270.322
-17131	-9263.1
-17324	-9249.202
-17566	-9231.488
-17614	-9215.221
-17334	-9206.487
-17192	-9210.067
-17370	-9227.832
-17610	-9257.913
-17562	-9294.811
-17309	-9330.839
-17135	-9358.05
-17259	-9370.643
-17427	-9366.886
-17427	-9349.767
-17104	-9326.621
-16842	-9307.239
-16954	-9301.21
-17165	-9315.0205
-17138	-9349.449
-16847	-9398.462
-16589	-9449.461
-16716	-9485.488
-16910	-9488.845
-16876	-9445.043
-16558	-9346.791
-16354	-9196.55
-16511	-9007.425
-16677	-8801.759
-16615	-8607.572
-16214	-8453.793
-15772	-8364.865
-15629	-8356.19
-16107	-8430.792
-16433	-8579.015
-16104	-8780.037
-15991	-9004.875
-16171	-9222.59
-16430	-9405.307
-16415	-9532.965
-16152	-9596.242
-15978	-9597.352
-16136	-9548.58
-16387	-9469.063
-16354	-9380.391
-16064	-9302.216
-15896	-9248.661
-16083	-9226.15
-16346	-9233.256
-16323	-9262.025
-16020	-9300.679
-15874	-9336.782
-16089	-9360.201
-16314	-9365.288
-16312	-9351.608
-16036	-9323.412
-15833	-9288.023
-16040	-9253.649
-16266	-9227.265
-16232	-9212.874
-16013	-9210.863
-15865	-9218.248
-16043	-9229.889
-16284	-9240.168
-16273	-9244.583
-16026	-9241.042
-15872	-9230.205
-16079	-9215.173
-16311	-9200.507
-16268	-9190.561
-15992	-9188.097
-15871	-9193.248
-16092	-9203.312
-16304	-9213.352
-16272	-9217.42
-16034	-9210.344
-15938	-9189.272
-16150	-9155.006
-16325	-9112.513
-16282	-9070.281
-15901	-9039.043
-15517	-9029.785
-15402	-9051.62
-15901	-9110.018
-16236	-9205.846
-15954	-9334.436
-15927	-9486.694
-16173	-9650.969
-16232	-9814.774
-16339	-9966.765
-16322	-10098.422
-15986	-10205.185
-16191	-10286.442
-16401	-10345.128
-16407	-10386.425
-16135	-10416.582
-15963	-10441.32
-16176	-10464.802
-16419	-10489.437
-16417	-10515.632
-15887	-10542.406
-15687	-10567.872
-16235	-10590.011
-16457	-10607.472
-16424	-10619.547
-16176	-10626.172
-16037	-10627.536
-16202	-10623.8545
-16426	-10614.936
-16422	-10599.815
-16161	-10577.301
-16007	-10546.164
-16259	-10505.707
-16463	-10456.327
-16416	-10399.661
-16149	-10338.6455
-15997	-10276.943
-16186	-10218.313
-16429	-10165.743
-16439	-10120.6045
-16212	-10082.148
-16053	-10047.493
-16264	-10012.048
-16489	-9970.52
-16446	-9918.062
-16178	-9851.535
-16057	-9770.457
-16263	-9677.486
-16474	-9578.325
-16461	-9480.8
-16102	-9393.618
-15626	-9324.717
-15503	-9279.949
-16102	-9261.948
-16709	-9269.282
-16499	-9296.84
-16100	-9336.929
-16280	-9380.774
-16539	-9420.003
-16481	-9448.108
-16221	-9461.371
-16076	-9459.278
-16297	-9444.289
-16487	-9420.9795
-16455	-9394.826
-16233	-9370.958
-16089	-9353.1455
-16276	-9343.135
-16509	-9340.608
-16476	-9343.49
-16184	-9348.795
-16047	-9353.461
-16255	-9355.192
-16501	-9353.008
-16501	-9347.342
-16241	-9339.746
-16112	-9332.362
-16291	-9327.196
-16502	-9325.534
-16491	-9327.57
-16251	-9332.366
-16109	-9338.223
-16325	-9343.241
-16539	-9346.012
-16501	-9346.083
-16266	-9344.227
-16119	-9342.279
-16284	-9342.65
-16496	-9347.624
-16513	-9358.463
-16287	-9374.846
-16113	-9394.545
-16314	-9413.619
-16547	-9427.111
-16502	-9430.076
-16269	-9418.652
-16107	-9391.23
-16336	-9349.025
-16582	-9296.31
-16525	-9239.897
-16171	-9188.109
-15788	-9149.366
-15666	-9130.694
-16124	-9136.314
-16491	-9167.005
-16216	-9219.773
-16161	-9288.259
-16346	-9364.009
-16584	-9437.795
-16599	-9501.064
-16353	-9547.295
-16205	-9572.865
-16402	-9577.4
-16652	-9563.604
-16603	-9536.477
-16330	-9502.305
-16181	-9467.571
-16383	-9437.926
-16613	-9417.517
-16573	-9408.561
-16310	-9411.353
-16179	-9424.5205
-16391	-9445.498
-16646	-9471.082
-16613	-9497.932
-16329	-9522.947
-16214	-9543.514
-16444	-9557.761
-16681	-9564.637
-16657	-9564.017
-16406	-9556.619
-16252	-9544.07
-16439	-9528.736
-16704	-9513.544
-16691	-9501.589
-16401	-9495.705
-16231	-9497.862
-16445	-9508.712
-16671	-9527.36
-16649	-9551.142
-16397	-9575.968
-16218	-9596.904
-16376	-9608.985
-16562	-9608.286
-16624	-9592.671
-16412	-9562.46
-16252	-9520.656
-16462	-9472.577
-16692	-9425.114
-16642	-9385.568
-16254	-9360.358
-15820	-9353.842
-15687	-9367.466
-16191	-9399.356
-16649	-9444.81
-16508	-9497.056
-16248	-9548.432
-16441	-9591.912
-16709	-9622.275
-16687	-9636.906
-16391	-9636.13
-16259	-9622.812
-16472	-9601.654
-16691	-9578.115
-16673	-9557.183
-16437	-9542.46
-16280	-9535.572
-16502	-9536.148
-16759	-9542.184
-16707	-9550.78
-16406	-9559.026
-16250	-9564.717
-16440	-9566.924
-16660	-9566.13
-16625	-9563.867
-16366	-9562.145
-16221	-9562.802
-16409	-9566.817
-16699	-9574.002
-16699	-9582.929
-16386	-9591.369
-16229	-9596.861
-16419	-9597.5
-16736	-9592.585
-16743	-9582.973
-16412	-9571.047
-16247	-9560.107
-16416	-9553.664
-16747	-9554.414
-16787	-9563.421
-16492	-9579.589
-16354	-9599.587
-16472	-9618.425
-16785	-9630.356
-16820	-9630.135
-16485	-9614.332
-16310	-9582.216
-16480	-9536.19
-16803	-9481.636
-16788	-9426.094
-16398	-9377.996
-16017	-9345.094
-15821	-9333.049
-16243	-9344.231
-16564	-9377.502
-16412	-9428.2705
-16397	-9489.344
-16527	-9552.527
-16826	-9609.848
-16827	-9654.968
-16510	-9684.215
-16361	-9696.796
-16514	-9694.562
-16827	-9681.541
-16851	-9662.707
-16439	-9643.027
-16248	-9626.422
-16563	-9615.268
-17092	-9610.275
-17109	-9610.83
-16562	-9615.535
-16439	-9622.589
-16622	-9630.683
-17081	-9639.047
-17111	-9647.515
-16588	-9656.507
-16422	-9666.381
-16592	-9677.14
-16923	-9688.191
-16923	-9698.282
-16561	-9705.782
-16412	-9709.015
-16599	-9706.924
-17099	-9699.38
-17112	-9687.587
-16589	-9673.917
-16441	-9661.358
-16629	-9652.875
-17106	-9650.596
-17082	-9655.176
-16586	-9665.42
-16455	-9678.144
-16608	-9688.862
-17113	-9692.582
-17164	-9685.06
-16632	-9663.849
-16422	-9628.931
-16606	-9583.131
-17115	-9531.735
-17161	-9481.769
-16480	-9440.8
-16054	-9415.305
-15397	-9409.691
-15576	-9425.137
-16689	-9459.363
-16555	-9507.458
-16551	-9562.334
-16702	-9616.568
-17035	-9663.535
-17064	-9698.588
-16698	-9719.61
-16536	-9727.195
-16704	-9724.085
-17197	-9714.29
-17238	-9702.085
-16680	-9691.044
-16538	-9683.162
-16668	-9678.771
-17111	-9676.695
-17138	-9674.975
-16617	-9671.682
-16474	-9665.451
-16707	-9656.17
-17214	-9644.938
-17200	-9633.928
-16696	-9625.67
-16548	-9622.189
-16716	-9624.483
-17117	-9632.031
-17106	-9642.95
-16704	-9654.488
-16549	-9663.605
-16727	-9668.065
-17188	-9667.057
-17229	-9661.668
-16671	-9654.8125
-16542	-9650.361
-16723	-9652.262
-17022	-9663.279
-17034	-9684.084
-16698	-9712.587
-16542	-9743.988
-16764	-9771.549
-17261	-9787.937
-17289	-9786.871
-16735	-9764.731
-16558	-9721.49
-16721	-9661.231
-17235	-9591.637
-17286	-9522.775
-16604	-9465.329
-15337	-9428.587
-14811	-9418.33
-16573	-9435.39
-16818	-9476.493
-16851	-9534.163
-16882	-9598.46
-16831	-9659.327
-17180	-9708.256
-17159	-9740.156
-16785	-9754.138
-16611	-9753.331
-16771	-9743.886
-17096	-9733.403
-17086	-9728.968
-16761	-9735.448
-16629	-9754.404
-16792	-9783.839
-17288	-9818.751
-17339	-9852.618
-16799	-9879.073
-16622	-9893.338
-16781	-9893.562
-17274	-9881.069
-17326	-9860.101
-16771	-9836.674
-16630	-9816.81
-16796	-9805.19
-17326	-9803.867
-17337	-9812.004
-16773	-9826.211
-16614	-9841.478
-16805	-9852.805
-17312	-9856.715
-17349	-9852.421
-16788	-9842.2295
-16653	-9830.848
-16827	-9824.234
-17321	-9827.774
-17353	-9844.5
-16801	-9873.782
-16667	-9910.628
-16864	-9946.343
-17347	-9970.057
-17336	-9971.116
-16777	-9941.61
-16646	-9878.307
-16861	-9784.152
-17349	-9668.33
-17294	-9545.119
-15902	-9431.727
-14512	-9344.954
-15162	-9297.8125
-16691	-9297.53
-16900	-9344.51
-16784	-9431.801
-16827	-9546.525
-16899	-9672.606
-17213	-9793.517
-17208	-9895.124
-16872	-9967.903
-16721	-10007.99
-16921	-10017.226
-17418	-10001.936
-17392	-9971.198
-16864	-9934.69
-16733	-9900.642
-16897	-9874.675
-17414	-9859.276
-17427	-9854.197
-16892	-9857.359
-16706	-9865.8545
-16924	-9877.035
-17407	-9889.13
-17412	-9901.425
-16874	-9913.896
-16742	-9926.405
-16921	-9938.224
-17417	-9947.611
-17433	-9952.087
-16891	-9949.046
-16712	-9936.515
-16894	-9914.37
-17422	-9884.923
-17439	-9853.114
-16884	-9825.86
-16752	-9810.495
-16937	-9813.133
-17430	-9836.695
-17428	-9879.6455
-16866	-9935.434
-16698	-9993.023
-16902	-10038.803
-17394	-10059.092
-17412	-10043.3
-16906	-9986.361
-16777	-9890.412
-16961	-9765.162
-17262	-9626.613
-17257	-9494.459
-16779	-9388.571
-16311	-9325.305
-16150	-9314.462
-16692	-9357.248
-17095	-9446.349
-16832	-9567.317
-16758	-9701.232
-16979	-9828.583
-17362	-9932.72
-17354	-10002.846
-16439	-10035.49
-16145	-10034.206
-16984	-10008.115
-17407	-9969.679
-17384	-9931.543
-16922	-9903.867
-16762	-9892.404
-16998	-9897.995
-17493	-9917.091
-17463	-9943.377
-16920	-9969.777
-16774	-9990.364
-16977	-10001.967
-17277	-10004.469
-17279	-10000.471
-16959	-9993.978
-16829	-9988.929
-16987	-9987.893
-17471	-9991.049
-17512	-9996.343
-16979	-10000.262
-16812	-9999.075
-16966	-9990.557
-17501	-9975.027
-17508	-9956.022
-16934	-9939.557
-16776	-9932.625
-16976	-9941.336
-17511	-9968.483
-17514	-10012.114
-16940	-10064.753
-16836	-10114.065
-17047	-10145.089
-17519	-10143.0205
-17523	-10096.807
-17016	-10001.952
-16820	-9862.429
-16931	-9691.089
-17287	-9507.9795
-17302	-9337.315
-16817	-9203.307
-16416	-9125.841
-16316	-9116.961
-16797	-9178.284
-17157	-9301.096
-16886	-9467.74
-16799	-9654.422
-17023	-9836.158
-17349	-9990.79
-17342	-10102.696
-17014	-10164.821
-16882	-10179.1
-17101	-10155.166
-17443	-10107.671
-17411	-10052.902
-17033	-10005.365
-16867	-9975.183
-17064	-9966.84
-17403	-9978.986
-17358	-10005.718
-17020	-10038.572
-16351	-10068.994
-16326	-10090.264
-17334	-10098.645
-17261	-10094.306
-17045	-10080.3125
-17005	-10061.577
-17148	-10043.507
-17455	-10030.3125
-17415	-10024.237
-17086	-10025.167
-16973	-10031.048
-17097	-10038.889
-17416	-10045.686
-17397	-10049.4795
-17092	-10049.798
-16929	-10047.664
-17089	-10045.257
-17419	-10044.782
-17381	-10047.704
-17067	-10053.863
-16926	-10061.235
-17124	-10066.177
-17436	-10064.258
-17391	-10051.305
-17088	-10024.481
-16951	-9983.268
-17098	-9930.015
-17406	-9869.543
-17411	-9808.474
-16957	-9753.994
-16507	-9712.542
-16346	-9688.612
-16910	-9684.076
-17350	-9698.021
-17059	-9726.493
-16960	-9764.24
-17137	-9805.572
-17483	-9845.507
-17496	-9880.725
-17142	-9909.773
-17028	-9932.918
-17187	-9951.765
-17486	-9968.348
-17443	-9984.426
-17137	-10000.788
-16989	-10017.104
-17173	-10032.083
-17506	-10043.939
-17489	-10051.126
-17129	-10052.841
-16955	-10049.469
-17163	-10042.761
-17545	-10035.318
-17522	-10030.131
-17182	-10029.642
-17043	-10035.1
-17226	-10046.364
-17515	-10061.608
-17464	-10077.921
-17142	-10091.814
-17034	-10100.259
-17046	-10101.688
-17504	-10096.152
-17712	-10085.647
-17200	-10073.685
-17038	-10064.307
-17209	-10061.311
-17537	-10066.905
-17519	-10081.156
-17200	-10101.446
-17036	-10122.891
-17181	-10139.259
-17502	-10144.02
-17524	-10131.805
-17156	-10099.613
-16980	-10047.623
-17212	-9979.609
-17549	-9902.385
-17487	-9824.906
-17036	-9756.781
-16625	-9706.757
-16524	-9681.543
-17026	-9684.693
-17392	-9715.726
-17104	-9770.403
-17014	-9841.838
-17265	-9921.427
-17587	-10000.056
-17511	-10069.428
-17198	-10122.878
-17089	-10156.008
-17271	-10167.063
-17606	-10156.683
-17564	-10127.727
-17256	-10084.544
-17121	-10032.545
-17269	-9977.728
-17601	-9926.002
-17566	-9882.898
-17249	-9852.92
-17106	-9839.379
-17278	-9844.034
-17569	-9866.717
-17550	-9905.285
-17252	-9955.578
-17124	-10011.851
-17317	-10067.543
-17647	-10115.922
-17620	-10151.247
-17277	-10169.571
-17154	-10169.513
-17341	-10152.795
-17637	-10123.838
-17616	-10089.199
-17282	-10056.302
-17140	-10032.1455
-17320	-10022.03
-17640	-10028.23
-17590	-10049.574
-17292	-10081.323
-17175	-10116.09
-17361	-10145.252
-17686	-10160.458
-17626	-10155.467
-17291	-10127.371
-17155	-10077.381
-17395	-10011.008
-17729	-9937.04
-17679	-9866.172
-17172	-9809.136
-16742	-9774.761
-16607	-9768.455
-17146	-9791.168
-17527	-9839.46
-17252	-9906.023
-17200	-9981.054
-17437	-10054.206
-17757	-10116.319
-17684	-10160.943
-17365	-10185.126
-17249	-10189.57
-17450	-10178.402
-17750	-10157.787
-17661	-10134.349
-17346	-10114.105
-17232	-10101.254
-17481	-10097.672
-17737	-10102.824
-17642	-10114.244
-17337	-10128.33
-17195	-10141.444
-17423	-10150.89
-17712	-10155.226
-17617	-10154.648
-17305	-10150.547
-17213	-10145.016
-17434	-10140.211
-17764	-10137.657
-17667	-10138.0205
-17327	-10140.786
-17225	-10144.673
-17445	-10148.222
-17751	-10150.224
-17666	-10150.264
-17389	-10148.736
-17243	-10146.89
-17472	-10146.495
-17782	-10148.995
-17722	-10155.04
-17404	-10163.798
-17254	-10172.94
-17458	-10179.021
-17758	-10177.926
-17709	-10165.955
-17381	-10140.643
-17262	-10101.72
-17450	-10051.583
-17756	-9995.087
-17699	-9939.007
-17241	-9890.896
-16842	-9857.755
-16799	-9844.837
-17297	-9854.472
-17546	-9885.815
-17254	-9934.859
-17289	-9995.027
-17517	-10058.622
-17827	-10118.073
-17766	-10167.191
-17446	-10202.052
-17356	-10221.363
-17540	-10226.498
-17816	-10220.751
-17732	-10208.451
-17406	-10193.967
-16860	-10180.93
-16871	-10171.61
-17700	-10166.614
-17691	-10165.572
-17377	-10167.307
-17330	-10170.495
-17561	-10174.168
-17845	-10178.144
-17744	-10182.874
-17397	-10188.804
-17329	-10196.394
-17532	-10205.616
-17777	-10215.664
-17706	-10225.001
-17416	-10231.65
-17317	-10233.689
-17548	-10230.026
-17832	-10220.78
-17734	-10207.673
-17434	-10193.725
-17336	-10182.716
-17532	-10178.391
-17835	-10183.3955
-17744	-10198.444
-17405	-10221.71
-17346	-10248.839
-17576	-10273.693
-17862	-10289.413
-17809	-10289.845
-17466	-10270.96
-17352	-10231.983
-17582	-10175.915
-17846	-10109.318
-17770	-10041.36
-17311	-9982.24
-16896	-9941.338
-16791	-9925.524
-17312	-9937.707
-17615	-9976.527
-17355	-10036.405
-17396	-10108.515
-17653	-10182.759
-17937	-10249.456
-17852	-10300.985
-17496	-10332.972
-17421	-10344.703
-17654	-10338.981
-17950	-10321.04
-17883	-10297.307
-17576	-10273.844
-17445	-10255.198
-17636	-10243.729
-18014	-10239.436
-17940	-10240.533
-17551	-10244.191
-17450	-10247.514
-17680	-10248.55
-17986	-10246.71
-17901	-10242.866
-17518	-10238.892
-17452	-10236.915
-17702	-10238.651
-18095	-10244.661
-18014	-10254.177
-17525	-10265.171
-17447	-10274.8955
-17639	-10280.795
-17993	-10281.289
-17948	-10276.544
-17554	-10268.401
-17452	-10260.036
-17677	-10255.363
-18063	-10257.68
-18030	-10268.672
-17611	-10287.516
-17475	-10310.61
-17676	-10332.088
-18047	-10344.843
-18007	-10342.219
-17613	-10319.568
-17487	-10275.641
-17682	-10213.46
-18018	-10140.21
-17953	-10066.192
-17456	-10003.111
-17089	-9961.803
-16546	-9950.244
-16796	-9971.507
-17652	-10023.015
-17526	-10097.08
-17572	-10181.838
-17725	-10263.777
-17999	-10329.944
-17944	-10370.459
-17612	-10380.171
-17539	-10359.523
-17712	-10314.315
-18070	-10254.346
-18007	-10191.496
-17607	-10137.342
-17490	-10101.037
-17706	-10087.828
-18031	-10098.411
-17943	-10129.278
-17597	-10173.685
-17519	-10223.364
-17732	-10270.235
-18045	-10307.942
-17991	-10332.818
-17651	-10344.066
-17568	-10343.425
-17684	-10334.33
-17984	-10320.812
-17950	-10306.546
-17636	-10294.104
-17546	-10284.758
-17717	-10278.734
-18039	-10275.565
-17987	-10274.805
-17626	-10276.407
-17519	-10280.798
-17724	-10288.832
-17991	-10301.202
-17937	-10317.878
-17622	-10337.4795
-17519	-10357.049
-17705	-10372.337
-18064	-10378.357
-18035	-10370.543
-17672	-10345.776
-17581	-10303.513
-17754	-10246.367
-18055	-10180.093
-18002	-10112.926
-16692	-10054.466
-15236	-10013.812
-16127	-9997.44
-17776	-10008.421
-17754	-10046.158
-17684	-10105.669
-17706	-10178.83
-17786	-10256.067
-18092	-10327.835
-18057	-10386.392
-17694	-10426.971
-17586	-10448.337
-17780	-10452.593
-18053	-10444.349
-17976	-10429.452
-17642	-10413.601
-17564	-10401.193
-17776	-10394.66
-18076	-10394.33
-18026	-10398.824
-17691	-10405.85
-17595	-10413.056
-17770	-10418.822
-18047	-10422.622
-17997	-10425.0205
-17659	-10427.172
-17595	-10430.278
-17751	-10434.904
-18039	-10440.559
-18014	-10445.719
-17672	-10448.208
-17584	-10445.952
-17796	-10437.801
-18090	-10424.281
-17984	-10407.9
-17643	-10392.738
-17574	-10383.752
-17768	-10385.465
-18052	-10400.596
-18032	-10428.923
-17736	-10466.661
-17641	-10506.658
-17811	-10539.529
-18127	-10555.339
-18084	-10545.706
-17743	-10505.795
-17625	-10435.726
-17807	-10341.156
-18132	-10232.646
-18126	-10124.128
-17640	-10030.51
-17212	-9965.056
-17007	-9937.021
-17681	-9949.852
-18152	-10000.865
-17702	-10081.811
-17723	-10180.35
-17892	-10282.703
-18194	-10375.858
-18117	-10449.882
-17782	-10499.166
-17462	-10522.905
-17541	-10524.4375
-18140	-10509.884
-18079	-10486.637
-17758	-10461.568
-17665	-10439.808
-17869	-10424.121
-18177	-10415.181
-18139	-10412.09
-17791	-10413.015
-17704	-10416.394
-17917	-10421.446
-18172	-10428.216
-18117	-10437.203
-17774	-10448.714
-17692	-10462.167
-17927	-10475.764
-18194	-10486.474
-18140	-10490.68
-17812	-10485.214
-17688	-10468.518
-17884	-10441.62
-18190	-10408.613
-18127	-10376.233
-17834	-10352.656
-17775	-10345.6455
-17886	-10360.472
-18208	-10397.878
-18186	-10453.168
-17832	-10516.081
-17716	-10572.206
-17879	-10605.537
-18185	-10601.574
-18146	-10550.718
-17828	-10450.825
-17720	-10308.573
-17891	-10139.142
-18154	-9964.106
-18120	-9807.981
-17689	-9693.989
-17287	-9639.832
-17146	-9654.448
-17648	-9736.1455
-18037	-9873.007
-17792	-10044.955
-17774	-10227.31
-17939	-10395.397
-18245	-10528.633
-18197	-10613.953
-17859	-10647.4375
-17776	-10634.2295
-17982	-10586.76
-18254	-10521.584
-18190	-10455.858
-17879	-10403.879
-17809	-10374.616
-17989	-10370.722
-18280	-10388.732
-18244	-10420.84
-17891	-10457.114
-17792	-10488.157
-17989	-10507.204
-18257	-10511.388
-18226	-10501.82
-17897	-10482.843
-17836	-10460.426
-18041	-10440.494
-18272	-10427.365
-18210	-10422.785
-17884	-10425.869
-17789	-10433.683
-17992	-10442.547
-18306	-10449.171
-18264	-10451.839
-17885	-10450.857
-17762	-10448.422
-17930	-10447.875
-18234	-10452.408
-18186	-10463.946
-17864	-10482.085
-17806	-10503.836
-17987	-10524.158
-18298	-10536.927
-18264	-10536.452
-17916	-10519.043
-17859	-10484.12
-17987	-10434.87
-18232	-10377.771
-18162	-10321.538
-17702	-10275.369
-17339	-10247.054
-17137	-10241.458
-17684	-10259.137
-18098	-10296.651
-17879	-10347.112
-17862	-10401.324
-18058	-10450.221
-18321	-10486.5
-18254	-10506.12
-17974	-10508.82
-17902	-10497.924
-18060	-10479.435
-18307	-10460.391
-18239	-10447.296
-17990	-10444.509
-17874	-10453.53
-17994	-10472.866
-18306	-10498.497
-18217	-10525.142
-17954	-10547.503
-17903	-10561.642
-18031	-10565.905
-18290	-10561.039
-18240	-10549.914
-17981	-10536.549
-17892	-10525.068
-18053	-10518.6045
-18313	-10518.48
-18239	-10524.086
-17957	-10533.093
-17937	-10542.278
-18114	-10548.61
-18362	-10550.139
-18261	-10546.648
-17977	-10539.725
-17899	-10532.295
-18039	-10527.863
-18333	-10529.238
-18284	-10537.625
-17946	-10551.896
-17848	-10568.526
-18042	-10582.19
-18332	-10586.829
-18268	-10577.119
-17816	-10549.852
-17728	-10504.902
-18111	-10445.735
-18367	-10379.125
-18295	-10314.035
-17823	-10260.07
-17444	-10225.546
-17252	-10216.268
-17800	-10234.254
-18212	-10276.944
-17931	-10337.888
-17951	-10408.426
-17587	-10479.181
-17651	-10541.496
-18235	-10588.927
-18024	-10618.424
-18007	-10630.236
-18179	-10627.615
-18445	-10615.664
-18346	-10600.079
-18063	-10585.866
-17986	-10576.431
-18121	-10573.18
-18414	-10575.527
-18342	-10581.573
-18034	-10588.847
-17944	-10595.1045
-18132	-10599.096
-18430	-10600.654
-18389	-10600.68
-18091	-10600.561
-17989	-10601.5205
-18111	-10604.16
-18422	-10607.938
-18404	-10611.34
-18131	-10612.218
-18007	-10608.499
-18166	-10599.026
-18439	-10584.077
-18342	-10565.714
-18074	-10547.473
-18031	-10533.691
-18157	-10528.556
-18426	-10534.748
-18361	-10552.603
-18100	-10579.488
-18009	-10609.993
-18197	-10636.731
-18481	-10651.713
-18391	-10648.063
-18124	-10621.557
-18039	-10571.886
-18181	-10503.192
-18471	-10423.634
-18385	-10344.19
-17944	-10276.756
-17621	-10232.046
-17461	-10217.638
-17919	-10236.395
-18277	-10286.075
-18058	-10359.552
-18012	-10446.061
-18156	-10533.54
-18456	-10610.395
-18417	-10667.696
-18137	-10700.469
-18064	-10708.27
-18236	-10694.881
-18521	-10667.235
-18456	-10633.775
-18159	-10602.489
-18124	-10579.602
-18264	-10568.522
-18530	-10569.54
-18459	-10580.196
-18178	-10596.232
-18068	-10612.866
-18214	-10626.018
-18496	-10633.199
-18427	-10633.947
-18134	-10629.688
-18092	-10623.064
-18219	-10617.213
-18472	-10614.67
-18448	-10616.756
-18156	-10623.169
-18062	-10632.187
-18200	-10641.176
-18486	-10647.353
-18493	-10648.605
-18192	-10644.069
-18097	-10634.454
-18271	-10621.849
-18564	-10609.117
-18469	-10599.173
-18159	-10594.0
-18123	-10593.97
-18277	-10597.661
-18519	-10601.892
-18462	-10602.395
-18189	-10594.684
-18100	-10575.184
-18225	-10542.216
-18544	-10496.55
-18509	-10441.633
-18062	-10383.186
-17636	-10328.298
-17406	-10284.303
-17936	-10257.405
-18366	-10251.793
-18166	-10268.887
-18194	-10306.989
-18357	-10361.949
-18629	-10427.641
-18549	-10497.152
-18282	-10563.639
-18212	-10621.396
-18322	-10666.521
-18601	-10697.133
-18534	-10713.405
-18252	-10717.131
-18191	-10711.26
-18388	-10699.312
-18683	-10684.786
-18584	-10670.848
-18312	-10659.933
-18251	-10653.653
-18361	-10652.892
-18651	-10657.645
-18609	-10667.241
-18305	-10680.32
-18228	-10694.98
-18365	-10709.029
-18659	-10720.155
-18607	-10726.342
-18267	-10726.19
-18189	-10719.297
-18387	-10706.503
-18637	-10689.899
-18564	-10672.648
-18302	-10658.425
-18216	-10650.759
-18366	-10652.31
-18654	-10664.055
-18597	-10684.886
-18336	-10711.457
-18242	-10738.587
-18369	-10760.112
-18652	-10769.867
-18589	-10763.0625
-18341	-10737.18
-18260	-10692.842
-18418	-10633.9375
-18704	-10567.119
-18617	-10500.954
-18159	-10444.418
-17799	-10405.376
-17636	-10389.348
-18159	-10398.289
-18456	-10430.69
-18213	-10481.628
-18266	-10543.693
-18411	-10608.677
-18689	-10668.762
-18594	-10717.891
-18331	-10752.547
-18274	-10771.997
-18421	-10778.109
-18727	-10774.418
-18640	-10765.296
-18346	-10754.776
-18271	-10745.779
-18465	-10739.724
-18731	-10736.519
-18641	-10735.04
-18360	-10733.629
-18273	-10730.866
-18427	-10726.128
-18717	-10719.709
-18633	-10712.841
-18342	-10707.176
-18284	-10704.216
-18452	-10704.87
-18701	-10708.992
-18630	-10715.431
-18362	-10722.235
-18329	-10727.275
-18472	-10728.971
-18727	-10726.763
-18651	-10721.556
-18386	-10715.529
-18313	-10711.634
-18458	-10712.857
-18694	-10721.158
-18635	-10736.709
-18299	-10757.413
-18223	-10778.92
-18447	-10795.374
-18759	-10800.505
-18695	-10789.093
-18358	-10758.231
-18280	-10708.347
-18460	-10643.677
-18746	-10571.733
-18666	-10502.233
-18257	-10445.494
-17926	-10410.516
-17329	-10403.466
-17590	-10426.091
-18471	-10475.507
-18484	-10544.844
-18539	-10624.278
-18561	-10703.192
-18812	-10771.683
-18676	-10822.73
-18439	-10852.879
-18447	-10862.41
-18591	-10855.309
-18827	-10837.857
-18741	-10817.22
-18475	-10799.794
-18420	-10790.015
-18585	-10789.688
-18840	-10797.938
-18769	-10811.873
-18482	-10827.475
-18397	-10840.797
-18581	-10848.981
-18844	-10850.825
-18757	-10846.897
-18447	-10839.119
-18352	-10830.031
-18569	-10822.044
-18808	-10816.678
-18739	-10814.226
-18481	-10813.77
-18415	-10813.599
-18542	-10812.025
-18816	-10807.99
-18771	-10801.707
-18467	-10794.666
-18402	-10789.4375
-18596	-10788.903
-18883	-10795.32
-18807	-10809.498
