EEG_CH1_RAW	EEG_CH1_BP_0p5_20
-502063	121.85622
-311486	261.0496
-269914	416.8942
-363871	596.9901
-499085	801.9519
-498254	995.9617
-311597	1116.4161
-273000	1164.9541
-363703	1172.3982
-501026	1182.961
-501568	1213.6108
-310966	1251.5758
-268423	1334.4744
-363326	1505.9463
-501236	1790.2291
-503253	2154.9463
-312484	2516.332
-268656	2835.3542
-363176	3093.0625
-500939	3283.2222
-503814	3387.8848
-313138	3384.4353
-268185	3331.844
-362603	3325.2776
-500758	3459.8376
-505356	3777.3958
-315188	4251.2896
-268245	4865.1787
-490362	5610.7656
-475170	6365.1367
-267781	6976.7744
-292091	7389.607
-415631	7592.408
-519387	7621.361
-480118	7541.5366
-276217	7437.2056
-288769	7478.2144
-405289	7817.2515
-518716	8541.505
-481980	9620.873
-278242	10911.04
-288397	12265.235
-404720	13507.367
-518469	14469.186
-480654	15014.238
-276744	15085.877
-287499	14815.784
-403798	14442.73
-518112	14254.116
-480281	14492.929
-276453	15297.902
-286768	16741.777
-402656	18740.574
-517604	21054.553
-474008	23312.24
-270063	25107.38
-288750	26186.541
-411891	26462.691
-520596	26045.836
-477593	25214.525
-274329	24366.887
-285745	24011.113
-401247	24578.371
-517056	26297.826
-476862	29093.898
-274541	32588.121
-285264	36251.99
-400254	39465.504
-516809	41664.23
-477606	42466.766
-275711	41802.4
-285559	40042.965
-400881	37886.094
-516738	36201.305
-476441	35798.63
-274728	37224.605
-285847	40676.21
-400362	45846.594
-516437	51943.08
-477218	57811.45
-275527	62201.758
-284941	64160.78
-399007	63246.93
-516255	59703.633
-476856	54464.832
-275196	49028.836
-284454	45247.49
-399472	44848.66
-516137	48978.434
-476858	57791.523
-274711	70240.04
-284014	84162.58
-397919	96461.2
-515717	103546.9
-477787	101909.52
-275890	88765.875
-283751	62702.94
-397674	23971.414
-515750	-25441.14
-478077	-82052.84
-275506	-141354.1
-282206	-198379.34
-397002	-248501.11
-515271	-288112.06
-476224	-315144.66
-275594	-329284.56
-283438	-331812.25
-402121	-325327.44
-516352	-313231.72
-480324	-299132.53
-277561	-286240.47
-282058	-276816.06
-396714	-271976.97
-515144	-271692.6
-481336	-275007.9
-278020	-280384.1
-282370	-286025.0
-396932	-290337.56
-514988	-292248.34
-482492	-291384.84
-278726	-288059.47
-281676	-283027.1
-395422	-277307.34
-514714	-271931.5
-483271	-267737.6
-279551	-265211.75
-280679	-264347.22
-395260	-264763.03
-514634	-265853.25
-483695	-266988.22
-279752	-267669.94
-281320	-267556.1
-395589	-266568.8
-514539	-264885.4
-484865	-262883.1
-280907	-261015.25
-280907	-259600.7
-394264	-258796.62
-514216	-258573.88
-484959	-258760.9
-281245	-259096.61
-280066	-259223.02
-394131	-258833.66
-514032	-257759.2
-484599	-256029.08
-280769	-253854.83
-280141	-251489.95
-394007	-249220.17
-513987	-247303.45
-485671	-245938.02
-282277	-245220.06
-280208	-245047.94
-393530	-245209.8
-513789	-245448.8
-484101	-245550.3
-283227	-245383.66
-281371	-244843.45
-398977	-243914.69
-514902	-242677.16
-484607	-241298.44
-281006	-239987.72
-279067	-238861.55
-395472	-237976.0
-513624	-237331.83
-485151	-236905.89
-281556	-236664.38
-277834	-236492.48
-390634	-236278.08
-512813	-235946.53
-482772	-235498.88
-279319	-235001.27
-277892	-234478.86
-390367	-233960.22
-512589	-233474.36
-482536	-233069.34
-278659	-232796.6
-276293	-232618.77
-389056	-232475.06
-512162	-232305.45
-485140	-232091.88
-281098	-231858.92
-276192	-231582.55
-389373	-231248.17
-512227	-230861.55
-484096	-230471.7
-279741	-230156.22
-275832	-229918.7
-388369	-229744.08
-511785	-229610.23
-484737	-229520.3
-280307	-229497.11
-274491	-229493.42
-385484	-229454.52
-510889	-229337.84
-477719	-229150.33
-274082	-228938.34
-272850	-228696.25
-385969	-228423.27
-510692	-228132.89
-480004	-227880.42
-275635	-227743.25
-273286	-227782.55
-385162	-227847.06
-510404	-227963.78
-482196	-228161.02
-281416	-228453.34
-275548	-228759.7
-391795	-229000.17
-512029	-229166.55
-485947	-229270.89
-281971	-229342.61
-274313	-229338.36
-386309	-229232.86
-510399	-229077.16
-484436	-228938.12
-280244	-228878.69
-273724	-228865.25
-385802	-228856.05
-510332	-228866.19
-488591	-228914.08
-284767	-229017.31
-274732	-229107.7
-385937	-229127.31
-510401	-229095.7
-490187	-229055.22
-285206	-229057.31
-271582	-229070.69
-383933	-229063.88
-509832	-229068.27
-488043	-229137.1
-282632	-229255.52
-271799	-229373.73
-384031	-229497.58
-509800	-229593.14
-490747	-229642.45
-285101	-229659.77
-270782	-229620.55
-384810	-229557.44
-509944	-229472.42
-493229	-229379.5
-288021	-229310.69
-270994	-229248.12
-384269	-229218.38
-509685	-229208.17
-494412	-229211.0
-289844	-229240.08
-273030	-229265.97
-386841	-229312.16
-510356	-229371.34
-500627	-229446.14
-298770	-229561.25
-272341	-229696.52
-386855	-229871.4
-510442	-230065.92
-500750	-230259.56
-302110	-230446.33
-275796	-230578.97
-395327	-230654.39
-512475	-230643.86
-509001	-230529.3
-314582	-230329.1
-276231	-230035.44
-389869	-229687.98
-511429	-229300.53
-509799	-228893.67
-315048	-228507.39
-276044	-228141.58
-391876	-227828.11
-511915	-227562.67
-512832	-227339.8
-322044	-227172.42
-276053	-227038.36
-391441	-226953.03
-511965	-226902.55
-514866	-226878.45
-327409	-226893.03
-275657	-226928.17
-390981	-226997.0
-512082	-227080.61
-514417	-227162.6
-325070	-227245.89
-274662	-227302.08
-389604	-227337.8
-511656	-227332.75
-515036	-227273.17
-326408	-227168.81
-273606	-227000.33
-388427	-226781.89
-511360	-226498.84
-515614	-226141.48
-327857	-225723.89
-273349	-225235.11
-389713	-224704.69
-511691	-224145.3
-517252	-223584.94
-332834	-223083.92
-274589	-222681.0
-391861	-222446.0
-512269	-222414.05
-518747	-222605.34
-337516	-223035.02
-274947	-223662.02
-392989	-224444.66
-512681	-225291.62
-519902	-226099.38
-340601	-226784.45
-275292	-227255.14
-399468	-227474.33
-514312	-227422.47
-521068	-227120.52
-344921	-226649.12
-275927	-226091.5
-393446	-225568.03
-513162	-225166.73
-521499	-224951.38
-345920	-224967.97
-278518	-225194.3
-397164	-225595.1
-514169	-226081.22
-522727	-226548.9
-349321	-226918.11
-275291	-227107.12
-390765	-227094.6
-512493	-226874.1
-521803	-226478.23
-343980	-225987.98
-272124	-225473.39
-389626	-225027.94
-512137	-224705.11
-521534	-224530.33
-341879	-224519.11
-266347	-224633.6
-385545	-224841.56
-511206	-225080.27
-520892	-225293.8
-339247	-225464.42
-262873	-225570.06
-380789	-225636.34
-509242	-225682.52
-518996	-225737.6
-331688	-225851.0
-254495	-226033.9
-371243	-226306.98
-506451	-226648.84
-515894	-227030.08
-320882	-227439.31
-247639	-227837.84
-367514	-228227.25
-504646	-228599.31
-513560	-228967.95
-314151	-229382.7
-243846	-229863.28
-364549	-230451.5
-502758	-231147.2
-510533	-231934.33
-304654	-232798.05
-235097	-233669.31
-363342	-234495.73
-502684	-235205.2
-508577	-235743.06
-301108	-236106.38
-234663	-236283.83
-357097	-236324.3
-499559	-236271.92
-508984	-236188.66
-304144	-236161.52
-235383	-236227.6
-358102	-236430.03
-499190	-236758.67
-511906	-237180.84
-316251	-237665.75
-238956	-238141.48
-362320	-238561.73
-500090	-238866.5
-514694	-239019.02
-328756	-239026.22
-246054	-238891.88
-371469	-238659.14
-503076	-238360.4
-519156	-238031.86
-350502	-237723.8
-260620	-237458.42
-388410	-237264.02
-508075	-237142.64
-524361	-237082.9
-377762	-237083.19
-280056	-237131.34
-410032	-237228.8
-515032	-237368.27
-529177	-237537.3
-402854	-237734.94
-294366	-237961.84
-422051	-238224.12
-519324	-238519.81
-531893	-238836.28
-410812	-239167.05
-306835	-239510.97
-440699	-239873.44
-524946	-240256.64
-534153	-240650.22
-412891	-241050.06
-290329	-241458.55
-408072	-241876.53
-518164	-242287.42
-533608	-242667.2
-405613	-243000.2
-295012	-243276.97
-430022	-243496.42
-525374	-243664.38
-533986	-243782.0
-401154	-243871.66
-288115	-243957.69
-411158	-244069.0
-518778	-244216.38
-532886	-244390.0
-390207	-244579.03
-274403	-244754.36
-390698	-244886.58
-512869	-244925.95
-529385	-244826.16
-369148	-244572.39
-265171	-244155.27
-388564	-243602.52
-511750	-242947.1
-527986	-242233.48
-365618	-241530.2
-260126	-240884.17
-380527	-240341.4
-508836	-239909.47
-526299	-239566.38
-360264	-239284.61
-257697	-239003.78
-376224	-238672.16
-506749	-238223.67
-524596	-237606.47
-354394	-236809.02
-257350	-235825.19
-376768	-234691.11
-506280	-233442.72
-523564	-232122.45
-350990	-230793.7
-252226	-229491.28
-367760	-228256.47
-502968	-227097.53
-519415	-226009.16
-333694	-224999.64
-245574	-224044.38
-361474	-223143.11
-500177	-222277.34
-512132	-221433.38
-310856	-220625.72
-236781	-219829.92
-348701	-219051.45
-495036	-218272.6
-485093	-217482.55
-263477	-216696.88
-219292	-215887.98
-328272	-215085.08
-483307	-214305.53
-401608	-213607.2
-197159	-213055.25
-177633	-212669.45
-257049	-212517.47
-350547	-212627.7
-244261	-213017.1
-188442	-213628.62
-217686	-214377.69
-321177	-215218.55
-476203	-216078.16
-465323	-216911.56
-258571	-217727.17
-250875	-218514.17
-396006	-219342.06
-505584	-220307.95
-522127	-221497.02
-421015	-222992.16
-283567	-224853.34
-362361	-227098.53
-480591	-229691.55
-385362	-232568.55
-247266	-235616.23
-249816	-238688.98
-348566	-241709.84
-481236	-244623.19
-374090	-247443.7
-204941	-250210.48
-206996	-252953.64
-338158	-255751.2
-477926	-258647.62
-393720	-261652.67
-273210	-264688.47
-288170	-267589.34
-430576	-270187.2
-512421	-272311.4
-479052	-273795.47
-270747	-274557.84
-239350	-274553.53
-326524	-273883.66
-449531	-272726.56
-323344	-271344.5
-210910	-269982.22
-241391	-268836.7
-356104	-268088.47
-485149	-267816.03
-488682	-267981.2
-299666	-268479.12
-264381	-269089.03
-371214	-269600.34
-492717	-269812.88
-491114	-269558.03
-304869	-268764.62
-269799	-267394.34
-367341	-265519.44
-493052	-263263.78
-520594	-260762.69
-386836	-258181.02
-327284	-255648.67
-424572	-253297.12
-505876	-251241.5
-525714	-249534.61
-387351	-248224.78
-311391	-247309.86
-412919	-246770.27
-507440	-246564.4
-528047	-246583.67
-391022	-246709.12
-303182	-246784.38
-389704	-246675.5
-500044	-246282.45
-499013	-245548.34
-320395	-244517.94
-290687	-243275.42
-386057	-242014.95
-499053	-240965.06
-511127	-240316.69
-342632	-240212.66
-294837	-240640.6
-382894	-241482.25
-500440	-242482.48
-484394	-243283.31
-311160	-243520.06
-287774	-242851.48
-374510	-241132.88
-497297	-238416.66
-479936	-234966.9
-309547	-231235.72
-285244	-227726.05
-366824	-224956.48
-488506	-223263.4
-419079	-222703.75
-269818	-222967.48
-268709	-223363.88
-342875	-222994.55
-463444	-220826.28
-378793	-215916.8
-263767	-207582.53
-264791	-195584.47
-355625	-180312.75
-482616	-162735.86
-417491	-144339.36
-282081	-126933.06
-283172	-112401.35
-366158	-102526.664
-489749	-98662.99
-449445	-101563.47
-290092	-111268.766
-276662	-127062.625
-353157	-147646.48
-480455	-171219.9
-412172	-195715.4
-278329	-218997.28
-277152	-239068.3
-360914	-254333.88
-489529	-263670.0
-471479	-266514.44
-313866	-262911.9
-294434	-253454.97
-382029	-239307.5
-499447	-222054.73
-476773	-203555.73
-326547	-185792.02
-308012	-170633.6
-381367	-159710.06
-495759	-154171.94
-470194	-154518.55
-313281	-160533.0
-307692	-171226.8
-391079	-185016.2
-499295	-199894.53
-491839	-213670.8
-334225	-224341.66
-306191	-230339.72
-380019	-230843.84
-492866	-225913.48
-445717	-216453.33
-307492	-204094.66
-300184	-190889.2
-373755	-179019.39
-488065	-170424.84
-430224	-166452.05
-308791	-167667.05
-302297	-173759.23
-371230	-183683.56
-485677	-195882.58
-438468	-208569.62
-308247	-220084.52
-292848	-229170.25
-365847	-235226.88
-481472	-238369.56
-408326	-239318.98
-293380	-239209.8
-291285	-239296.97
-363070	-240713.34
-469499	-244210.42
-378269	-249979.89
-286176	-257607.88
-279708	-266179.38
-351569	-274513.12
-463936	-281394.94
-371129	-285814.9
-288381	-287136.53
-279122	-285234.75
-349721	-280540.5
-476782	-273906.16
-410738	-266425.44
-292137	-259203.83
-285948	-253145.08
-351556	-248858.48
-475028	-246540.38
-403946	-245983.45
-294184	-246648.56
-290927	-247810.95
-364372	-248788.52
-482474	-249051.34
-420038	-248317.23
-305752	-246576.52
-300473	-244054.58
-386214	-241185.64
-496009	-238453.14
-451176	-236245.88
-315512	-234760.08
-316567	-233915.5
-399183	-233435.05
-499668	-232863.14
-461024	-231648.62
-327994	-229280.98
-314532	-225389.14
-392303	-219912.33
-499481	-213094.06
-458827	-205464.9
-341238	-197769.73
-325740	-190840.83
-386727	-185535.08
-492900	-182517.62
-470139	-182156.73
-339486	-184450.44
-326782	-188998.48
-416174	-195133.83
-503130	-201951.06
-459597	-208470.86
-341959	-213769.3
-325415	-217165.11
-395047	-218349.22
-496401	-217362.08
-462265	-214629.02
-336426	-210854.72
-312326	-206932.33
-376581	-203751.81
-485870	-202048.0
-418305	-202326.16
-316096	-204714.89
-298703	-208983.94
-369541	-214651.48
-487229	-220993.88
-423573	-227229.5
-311212	-232647.75
-307622	-236716.72
-375238	-239197.58
-484947	-240174.23
-409344	-239989.84
-298627	-239119.94
-299041	-238113.95
-367167	-237475.61
-479638	-237514.7
-406422	-238347.62
-300587	-239814.12
-303007	-241582.53
-378291	-243229.84
-482685	-244288.86
-413830	-244395.23
-308501	-243320.42
-295511	-241070.47
-360732	-237870.72
-475132	-234083.69
-401107	-230175.19
-305073	-226602.66
-297599	-223725.3
-364901	-221804.34
-475766	-220883.84
-402052	-220857.64
-304127	-221432.72
-295240	-222273.95
-354343	-223031.73
-468786	-223367.31
-406239	-223063.06
-316328	-221990.61
-301116	-220126.64
-340814	-217598.56
-394913	-214575.89
-354554	-211252.83
-294088	-207809.97
-287577	-204412.48
-360380	-201248.48
-474062	-198455.78
-405608	-196171.27
-306327	-194485.4
-295280	-193448.94
-368941	-193112.44
-480182	-193475.69
-416674	-194488.12
-309617	-196030.33
-289582	-197903.77
-354551	-199906.02
-474202	-201825.75
-411593	-203487.92
-319139	-204769.86
-298556	-205623.77
-358005	-206135.48
-475885	-206480.38
-414571	-206909.27
-303170	-207671.64
-287146	-208970.47
-363049	-210979.08
-481057	-213735.73
-432731	-217176.14
-322464	-221113.0
-307218	-225258.95
-373374	-229339.62
-492916	-233073.6
-469641	-236251.22
-333001	-238747.53
-316449	-240516.03
-371513	-241650.14
-482837	-242275.9
-425957	-242576.61
-313222	-242709.16
-303779	-242792.23
-369930	-242944.64
-476222	-243213.12
-390070	-243642.4
-290948	-244215.53
-306054	-244923.88
-380034	-245793.11
-487571	-246817.17
-480535	-247995.38
-347017	-249284.22
-327514	-250597.27
-417704	-251792.44
-511281	-252662.39
-505731	-252977.6
-352044	-252517.53
-363659	-251103.61
-464532	-248684.69
-513554	-245337.22
-541768	-241263.72
-498237	-236780.66
-364789	-232321.3
-404772	-228316.58
-508491	-225102.12
-496469	-222896.72
-340606	-221733.48
-314414	-221457.0
-415004	-221770.28
-504682	-222277.44
-478081	-222590.25
-363229	-222390.86
-336285	-221505.25
-446487	-219970.45
-525937	-217999.88
-540393	-215928.55
-431415	-214145.97
-352817	-212999.2
-413701	-212716.2
-497598	-213317.8
-505730	-214620.17
-344711	-216279.36
-306317	-217828.11
-442544	-218823.02
-518672	-218935.62
-523232	-218025.89
-370921	-216207.44
-313101	-213791.61
-418352	-211264.31
-518664	-209150.83
-539787	-207894.86
-419070	-207749.38
-310426	-208713.42
-408295	-210486.89
-513627	-212527.3
-541527	-214165.69
-431444	-214744.69
-315742	-213791.4
-409982	-211088.39
-507774	-206764.67
-542185	-201293.92
-438207	-195417.12
-311080	-190030.25
-408107	-185969.3
-507976	-183875.67
-531788	-184072.33
-366603	-186513.75
-269424	-190798.5
-359247	-196232.12
-495633	-201970.33
-505837	-207213.52
-322377	-211339.9
-261321	-213999.67
-357191	-215135.31
-492626	-214959.48
-512832	-213893.9
-328066	-212440.16
-256284	-211052.4
-350364	-210014.33
-489491	-209410.31
-507670	-209165.73
-326148	-209095.23
-271382	-208983.52
-361444	-208693.69
-495664	-208218.77
-525291	-207744.36
-362175	-207603.33
-271144	-208197.11
-372725	-209855.58
-498696	-212734.6
-516141	-216752.61
-335741	-221555.5
-256604	-226537.69
-352232	-230940.42
-490723	-233991.64
-508073	-235091.61
-321823	-233952.03
-251807	-230636.73
-332272	-225598.73
-480813	-219564.28
-515256	-213443.4
-337726	-208166.48
-262136	-204474.2
-359779	-202820.16
-487040	-203299.86
-498119	-205699.67
-312355	-209597.31
-261174	-214462.45
-364420	-219833.61
-488683	-225420.33
-524745	-231177.83
-365375	-237290.67
-261232	-244049.66
-371935	-251708.55
-495288	-260337.69
-528226	-269698.34
-376780	-279220.6
-267426	-288014.84
-370664	-294990.38
-494105	-299078.0
-524747	-299471.4
-365098	-295848.28
-266866	-288477.78
-361229	-278247.4
-491045	-266559.34
-531019	-255130.38
-392255	-245698.89
-266905	-239724.8
-352969	-238068.6
-488379	-240851.4
-525480	-247437.58
-363394	-256547.77
-261603	-266492.8
-355609	-275467.16
-488206	-281892.72
-526652	-284725.56
-375462	-283630.84
-269981	-279025.12
-373804	-271928.9
-495883	-263764.28
-532901	-256074.34
-411944	-250210.77
-285797	-247109.55
-388787	-247078.98
-498769	-249817.34
-535724	-254523.47
-430045	-260100.3
-294511	-265436.16
-391772	-269577.0
-502339	-271955.38
-537011	-272479.28
-434606	-271500.78
-301066	-269732.0
-383589	-267974.0
-496335	-266943.78
-529938	-267096.22
-375094	-268511.9
-278691	-270872.8
-403013	-273493.88
-501179	-275519.84
-538488	-276105.9
-458278	-274601.44
-311760	-270747.44
-425122	-264643.03
-522766	-256797.72
-541876	-248015.25
-468097	-239231.77
-325329	-231360.86
-427269	-225045.89
-516594	-220630.0
-543994	-218098.39
-485350	-217111.02
-323662	-217181.97
-381728	-217714.84
-503762	-218189.69
-541014	-218292.73
-417927	-217969.45
-269989	-217437.7
-362595	-217043.78
-494841	-217189.98
-537562	-218216.16
-410087	-220281.5
-273838	-223326.64
-365441	-226996.58
-488485	-230745.69
-538295	-233944.62
-427151	-236004.19
-278529	-236533.03
-385168	-235351.27
-499344	-232582.03
-539025	-228618.95
-431649	-224050.42
-286054	-219567.6
-364325	-215772.03
-494364	-213089.0
-539556	-211712.22
-437011	-211575.5
-279778	-212413.28
-356579	-213797.12
-487157	-215254.72
-527236	-216405.28
-367744	-217040.73
-289460	-217151.0
-445569	-216897.08
-519427	-216604.45
-541999	-216642.27
-467191	-217326.5
-299009	-218904.98
-364474	-221388.64
-494020	-224579.4
-541402	-228134.31
-474405	-231622.38
-330664	-234637.1
-465584	-236827.03
-539999	-238022.19
-545018	-238222.2
-453152	-237609.92
-302623	-236508.39
-414153	-235274.33
-516667	-234230.16
-545156	-233585.19
-489905	-233429.44
-343052	-233715.36
-455377	-234205.61
-528766	-234669.34
-546245	-234849.69
-448592	-234554.88
-299062	-233726.27
-425671	-232417.83
-526637	-230825.78
-546971	-229218.22
-481864	-227900.12
-310743	-227184.9
-357006	-227269.48
-493344	-228228.75
-545247	-230009.86
-482763	-232482.36
-321114	-235469.03
-397031	-238737.8
-499392	-242098.61
-532700	-245390.23
-358342	-248532.02
-254657	-251444.22
-356787	-254071.39
-495229	-256345.53
-537171	-258150.27
-389072	-259386.77
-234864	-259930.83
-320811	-259667.08
-472709	-258540.98
-508601	-256590.53
-317528	-254019.53
-242877	-251113.64
-348111	-248266.94
-485859	-245953.69
-526020	-244611.69
-355807	-244629.11
-239170	-246218.38
-340091	-249385.38
-483815	-253964.48
-533965	-259581.28
-407053	-265754.56
-262038	-271928.1
-363966	-277523.78
-489962	-282088.06
-531863	-285261.94
-380586	-286872.88
-257632	-286875.5
-375812	-285351.53
-499700	-282500.5
-540069	-278557.66
-491172	-273771.97
-341666	-268420.28
-444262	-262757.78
-525601	-257045.97
-544994	-251519.61
-482745	-246408.48
-334734	-241961.62
-456372	-238397.42
-530542	-235922.16
-547446	-234647.89
-499169	-234582.08
-337732	-235653.23
-404902	-237667.78
-513670	-240327.45
-548081	-243256.52
-488751	-246053.0
-333142	-248365.84
-436135	-249901.44
-524074	-250511.0
-548889	-250144.83
-463434	-248890.78
-286559	-246967.0
-372651	-244652.84
-503544	-242272.08
-546786	-240132.28
-485661	-238499.88
-321314	-237606.16
-401127	-237598.83
-507509	-238549.6
-545844	-240441.42
-428571	-243192.39
-262020	-246663.17
-347865	-250658.77
-484402	-254950.92
-541552	-259275.98
-425857	-263389.22
-270762	-267075.47
-361217	-270171.3
-490066	-272585.78
-538044	-274306.78
-388972	-275443.0
-242110	-276163.72
-336727	-276678.7
-475046	-277222.8
-537673	-277959.16
-418419	-278996.72
-271971	-280330.88
-366859	-281834.84
-491686	-283318.56
-536048	-284513.94
-386805	-285186.06
-243035	-285144.9
-338892	-284299.78
-482916	-282704.12
-538842	-280514.0
-430854	-277992.8
-265228	-275444.34
-342729	-273124.4
-476859	-271229.72
-530810	-269807.16
-371064	-268786.3
-248419	-267948.28
-359436	-266995.34
-489022	-265634.16
-539910	-263591.25
-468420	-260696.08
-307572	-256919.75
-389458	-252342.16
-497586	-247168.39
-539631	-241625.88
-405859	-235969.61
-253496	-230407.56
-361921	-225054.2
-496449	-220003.17
-541827	-215274.67
-479477	-210897.03
-302749	-206959.11
-364811	-203573.61
-488616	-200956.97
-534507	-199330.7
-377566	-198933.64
-250138	-199904.03
-359672	-202213.2
-492074	-205698.25
-541307	-209985.66
-465786	-214569.38
-291294	-218897.97
-371324	-222446.69
-493672	-224872.67
-541979	-226043.67
-440629	-226153.22
-268827	-225683.52
-363222	-225273.56
-489419	-225709.44
-541133	-227668.28
-439921	-231646.2
-267277	-237836.19
-355249	-246003.3
-487166	-255618.1
-541089	-265847.78
-448370	-275761.62
-273312	-284484.9
-363022	-291272.6
-489441	-295751.84
-541667	-297878.72
-454640	-297949.1
-278498	-296523.53
-361094	-294248.3
-488446	-291792.2
-541217	-289645.8
-437447	-288085.25
-267362	-287144.03
-355052	-286610.47
-485411	-286181.72
-540887	-285495.75
-441544	-284286.34
-268426	-282444.84
-352608	-280008.78
-482971	-277223.47
-539660	-274389.03
-425657	-271840.38
-257387	-269832.4
-343369	-268432.66
-479229	-267575.6
-538084	-267006.1
-419032	-266382.4
-254917	-265343.03
-343610	-263559.28
-479312	-260891.2
-538127	-257346.66
-423539	-253121.78
-260860	-248541.28
-353579	-243980.61
-483861	-239817.0
-539918	-236293.89
-449082	-233568.95
-280734	-231669.72
-372254	-230449.94
-493861	-229760.02
-541923	-229410.11
-461054	-229255.11
-287907	-229243.17
-379411	-229343.08
-492459	-229642.34
-542461	-230174.89
-454574	-230969.95
-281336	-231993.73
-363016	-233066.92
-487366	-233992.62
-541847	-234500.6
-441791	-234382.98
-268761	-233546.84
-352010	-231986.44
-483100	-229923.66
-541136	-227678.58
-445137	-225696.31
-273325	-224439.36
-364229	-224242.36
-489284	-225346.11
-542096	-227742.36
-462326	-231244.47
-289762	-235520.5
-377001	-240074.1
-495409	-244458.28
-543996	-248267.22
-469506	-251220.25
-294075	-253222.22
-376731	-254277.95
-495339	-254573.17
-544617	-254313.16
-471475	-253705.84
-295026	-252909.88
-375132	-251983.58
-495588	-250925.02
-544762	-249661.12
-464354	-248133.08
-285943	-246357.06
-365965	-244414.3
-488464	-242528.23
-543996	-240965.69
-457836	-240019.7
-278469	-239952.53
-362661	-240903.98
-488691	-242850.86
-543635	-245563.03
-457339	-248658.36
-275969	-251664.3
-353749	-254075.27
-484777	-255487.62
-542754	-255637.08
-450481	-254491.48
-269993	-252267.69
-359764	-249345.7
-483774	-246276.28
-542144	-243590.77
-446146	-241757.52
-262514	-241083.03
-340089	-241628.62
-476039	-243255.0
-540777	-245594.03
-442762	-248186.81
-264469	-250570.55
-348367	-252293.5
-479464	-253114.52
-540921	-252934.47
-443312	-251872.27
-259341	-250210.22
-344101	-248249.81
-479807	-246363.48
-540911	-244809.27
-460896	-243763.27
-280776	-243282.17
-369844	-243218.77
-494388	-243397.05
-543379	-243564.14
-482711	-243482.55
-303631	-243006.1
-387171	-242018.42
-501532	-240576.14
-545527	-238782.02
-490929	-236816.77
-312575	-234912.81
-387393	-233231.75
-499742	-231956.19
-546524	-231167.92
-485910	-230889.53
-302521	-231127.72
-376269	-231798.4
-495397	-232871.38
-546334	-234284.84
-479037	-236000.44
-290336	-238013.39
-360125	-240277.34
-487322	-242783.98
-545289	-245464.45
-468622	-248225.05
-276909	-250956.48
-351753	-253483.72
-485126	-255665.94
-544374	-257335.36
-468851	-258363.02
-280686	-258681.2
-367677	-258251.1
-488058	-257138.83
-544166	-255433.48
-468002	-253284.0
-277104	-250891.2
-353029	-248437.16
-482779	-246146.3
-543519	-244188.1
-464057	-242712.66
-273052	-241841.0
-351934	-241613.56
-483964	-242054.55
-543667	-243103.25
-472113	-244660.84
-282569	-246618.38
-363244	-248799.02
-488000	-251073.89
-544245	-253287.14
-475626	-255307.02
-284061	-257051.97
-358618	-258456.25
-486146	-259521.11
-544242	-260247.05
-473491	-260673.02
-279696	-260877.73
-351029	-260883.3
-481529	-260757.17
-543604	-260510.56
-466979	-260148.89
-273351	-259674.53
-349321	-259041.36
-480657	-258249.33
-543178	-257269.94
-469209	-256110.97
-276383	-254836.86
-352376	-253474.36
-481711	-252133.4
-543252	-250895.98
-470310	-249836.4
-276701	-249019.19
-349071	-248445.8
-479666	-248104.27
-542826	-247908.95
-464575	-247762.05
-270042	-247581.0
-343028	-247234.34
-477705	-246678.52
-542269	-245872.6
-461379	-244832.72
-268457	-243636.48
-352615	-242340.52
-477789	-241076.75
-541949	-239924.39
-465035	-238952.97
-271558	-238214.03
-346142	-237669.89
-477608	-237303.83
-542050	-237039.7
-467432	-236811.94
-273722	-236600.3
-346857	-236375.17
-477586	-236216.61
-542117	-236213.03
-465866	-236501.3
-271912	-237251.94
-345840	-238564.72
-476729	-240552.2
-541979	-243215.34
-468961	-246481.33
-276554	-250214.38
-352855	-254165.83
-481059	-258105.22
-542649	-261761.14
-478647	-264906.56
-287303	-267402.78
-360231	-269148.25
-486239	-270184.53
-543792	-270587.94
-481281	-270487.56
-288341	-270050.22
-356617	-269383.22
-483240	-268600.72
-543711	-267723.16
-475425	-266723.16
-280307	-265558.2
-349408	-264134.5
-479219	-262425.78
-543283	-260415.55
-475956	-258157.69
-281673	-255793.53
-351455	-253475.55
-479538	-251427.38
-543423	-249822.28
-476290	-248792.95
-281747	-248418.56
-352979	-248631.8
-482552	-249329.92
-543612	-250295.97
-476495	-251285.62
-278791	-252084.14
-356839	-252463.86
-479857	-252342.02
-543092	-251689.92
-471787	-250596.02
-275333	-249252.97
-347612	-247850.16
-478037	-246647.34
-542762	-245834.2
-476102	-245546.72
-279133	-245858.25
-348337	-246702.81
-478051	-247989.17
-543032	-249531.86
-476342	-251126.92
-278468	-252600.34
-345724	-253762.84
-476809	-254532.64
-542777	-254847.33
-472339	-254713.55
-271244	-254209.88
-336292	-253388.92
-469804	-252376.7
-541599	-251257.28
-467131	-250121.31
-268436	-249068.45
-342622	-248122.27
-474125	-247355.66
-541630	-246788.06
-472394	-246438.3
-271011	-246337.05
-337598	-246437.08
-470688	-246732.67
-541251	-247156.86
-467527	-247636.34
-265099	-248109.97
-330987	-248455.61
-465463	-248621.47
-540104	-248538.47
-463068	-248186.3
-261749	-247603.19
-333476	-246809.69
-467842	-245916.53
-540083	-245009.4
-469395	-244186.5
-270014	-243552.73
-341971	-243129.77
-475524	-242963.73
-541166	-243027.94
-475062	-243272.0
-275002	-243652.39
-351981	-244065.94
-475532	-244480.98
-541159	-244836.16
-477389	-245101.86
-279251	-245291.42
-349652	-245380.73
-478178	-245412.66
-541981	-245391.69
-479354	-245323.27
-279416	-245232.88
-344268	-245097.06
-474086	-244953.45
-541604	-244810.1
-474071	-244699.45
-271121	-244692.94
-334954	-244823.2
-468622	-245181.34
-540736	-245805.98
-467297	-246722.25
-262681	-247943.25
-323418	-249385.88
-459095	-250986.23
-538521	-252604.48
-445640	-254106.06
-247791	-255377.88
-324171	-256266.92
-461604	-256727.05
-538421	-256721.84
-464962	-256283.83
-260256	-255522.19
-320950	-254512.88
-457061	-253411.36
-537457	-252331.11
-447377	-251387.05
-249249	-250678.77
-325864	-250204.0
-461771	-249992.5
-537761	-250003.48
-469632	-250189.88
-268532	-250522.73
-334923	-250908.58
-466907	-251328.05
-539087	-251730.2
-478699	-252078.9
-281017	-252367.86
-350779	-252535.81
-480128	-252588.56
-541046	-252496.72
-487688	-252239.62
-292631	-251840.58
-369492	-251283.4
-484881	-250646.62
-542458	-249982.05
-493652	-249361.62
-301041	-248890.38
-366272	-248603.5
-488408	-248574.16
-543978	-248795.89
-498904	-249215.73
-304011	-249767.98
-353456	-250302.36
-477976	-250714.45
-543377	-250867.02
-482419	-250662.53
-275124	-250085.25
-324749	-249124.34
-458682	-247892.64
-539312	-246511.77
-438376	-245155.27
-236818	-244010.3
-301903	-243178.56
-443232	-242772.23
-530372	-242792.8
-387520	-243200.94
-217401	-243884.44
-299778	-244642.22
-443091	-245324.89
-529166	-245757.58
-393336	-245837.7
-223393	-245516.33
-305633	-244770.4
-444791	-243708.38
-530103	-242443.61
-403445	-241144.16
-224206	-239977.62
-296989	-239043.97
-438796	-238467.95
-525285	-238284.55
-381902	-238513.7
-222359	-239122.55
-304851	-240010.25
-442188	-241129.38
-528742	-242387.72
-405288	-243726.84
-230860	-245097.77
-314068	-246415.58
-456628	-247670.0
-534432	-248815.78
-464412	-249819.11
-268069	-250671.84
-338012	-251318.83
-445862	-251788.11
-533969	-252065.25
-469386	-252172.86
-271084	-252168.34
-335716	-252060.3
-472089	-251918.08
-537648	-251757.8
-488454	-251572.75
-298546	-251354.02
-362676	-251008.47
-481098	-250491.52
-540327	-249712.08
-494801	-248594.62
-302285	-247129.25
-349205	-245303.95
-475118	-243222.27
-541112	-240999.78
-499730	-238788.33
-313301	-236781.98
-365819	-235105.31
-485832	-233903.25
-542908	-233215.38
-498929	-233007.89
-306067	-233211.0
-345037	-233648.23
-467652	-234180.61
-541217	-234635.97
-475733	-234892.42
-273066	-234919.58
-318741	-234701.94
-448623	-234357.75
-534970	-234018.73
-421671	-233867.36
-247218	-234081.55
-311502	-234756.08
-444896	-235988.17
-529599	-237760.4
-397015	-240012.5
-242907	-242615.77
-312521	-245371.31
-442698	-248140.75
-523134	-250765.88
-375391	-253165.5
-243887	-255291.95
-327581	-257121.4
-459986	-258739.75
-535567	-260215.47
-457043	-261630.86
-279538	-263064.7
-348956	-264505.72
-458588	-265972.62
-529261	-267386.62
-393470	-268663.56
-246023	-269684.22
-299610	-270294.22
-425856	-270409.62
-472738	-269935.38
-284584	-268838.78
-206005	-267072.38
-249314	-264616.9
-387663	-261519.6
-380640	-257826.05
-225697	-253595.44
-175525	-248862.0
-211358	-243685.28
-285539	-238205.73
-293649	-232557.48
-272309	-226894.17
-255445	-221409.38
-325377	-216324.36
-440666	-211926.78
-506961	-208442.94
-375505	-206068.98
-283457	-204887.08
-342220	-204853.3
-450221	-205854.08
-476370	-207613.34
-322467	-209774.81
-251782	-211897.81
-311926	-213547.97
-430312	-214424.89
-448093	-214334.4
-342719	-213260.75
-283677	-211359.81
-340003	-208959.27
-444551	-206565.73
-476449	-204694.98
-344207	-203832.02
-276288	-204304.83
-325824	-206250.4
-420958	-209639.56
-408185	-214197.27
-310219	-219474.0
-276780	-224916.92
-318992	-229997.08
-439669	-234341.77
-454371	-237733.6
-333989	-240173.33
-290791	-241840.64
-363487	-243062.31
-451134	-244295.66
-468151	-245916.5
-348351	-248187.64
-298376	-251159.22
-349827	-254681.19
-443652	-258491.98
-475701	-262192.66
-355897	-265395.0
-289407	-267784.53
-315127	-269216.0
-382805	-269806.25
-374723	-269821.62
-315782	-269635.5
-301077	-269635.75
-371076	-270134.16
-451350	-271338.8
-462339	-273196.2
-318801	-275442.75
-284669	-277607.34
-332197	-279159.25
-410006	-279665.2
-423692	-278801.5
-345408	-276460.38
-311922	-272760.7
-359701	-268047.3
-435862	-262849.97
-458983	-257669.84
-363501	-252917.98
-340954	-248796.31
-392022	-245301.5
-476300	-242288.5
-485195	-239454.39
-387632	-236477.94
-368761	-233109.52
-420267	-229313.36
-514017	-225338.89
-544696	-221607.12
-546022	-218655.75
-517033	-217039.5
-473112	-217206.83
-520650	-219393.95
-533613	-223476.95
-440237	-229012.47
-369266	-235289.19
-439421	-241447.39
-493662	-246720.08
-390066	-250469.86
-383003	-252248.56
-341781	-251914.7
-409882	-249549.31
-480389	-245448.45
-512647	-239871.7
-455799	-232981.94
-420398	-224762.36
-421039	-215023.84
-463319	-203534.56
-492978	-190057.77
-379476	-174591.4
-341843	-157491.42
-352601	-139599.5
-362409	-122302.56
-372317	-107294.11
-348755	-96384.15
-322633	-91210.93
-347905	-92921.0
-368536	-101961.22
-360488	-117800.81
-348187	-138944.83
-328179	-163119.73
-354191	-187607.92
-396602	-209689.86
-416759	-226979.88
-344986	-237860.58
-299062	-241714.31
-323908	-239060.83
-398760	-231424.4
-420729	-220975.78
-332228	-210159.52
-292817	-201208.25
-327573	-195802.47
-395978	-194783.0
-408146	-197973.2
-322872	-204307.4
-281046	-212062.97
-316851	-219294.34
-393797	-224251.7
-400812	-225685.53
-323561	-223125.92
-287550	-216952.11
-317176	-208367.61
-369041	-199134.92
-375516	-191151.9
-308876	-186103.62
-277058	-185104.7
-313878	-188529.38
-381408	-195949.89
-391626	-206157.16
-310452	-217441.98
-268967	-227913.66
-304031	-235877.14
-340464	-240195.3
-334472	-240368.56
-289298	-236638.0
-269074	-229879.16
-297897	-221419.89
-334917	-212801.72
-324826	-205376.9
-281457	-200088.58
-275226	-197339.77
-360317	-196969.48
-432372	-198428.94
-437495	-200856.58
-367668	-203348.03
-319163	-205176.33
-348003	-205949.06
-418156	-205733.95
-509385	-204905.56
-432738	-204085.61
-341611	-203929.22
-371970	-204923.23
-427171	-207327.42
-435476	-211009.84
-365156	-215521.12
-327679	-220226.88
-373772	-224503.23
-471621	-228004.67
-523234	-230736.33
-433179	-233162.3
-364932	-236128.22
-441707	-240696.39
-512404	-247972.44
-515555	-258699.16
-408996	-273028.22
-377135	-290320.28
-470367	-309182.25
-486876	-327664.3
-426569	-343448.62
-387833	-354258.75
-417614	-358297.78
-518087	-354678.4
-489860	-343683.34
-366648	-326697.97
-427019	-306006.84
-476221	-284516.78
-524718	-265310.25
-430318	-251119.33
-337122	-243743.66
-433135	-243735.92
-498045	-250383.83
-482487	-261850.78
-377793	-275533.88
-321944	-288401.72
-402422	-297568.97
-465126	-300834.78
-474364	-297092.4
-368101	-286476.8
-321332	-270195.47
-392087	-250290.44
-434021	-229298.45
-450084	-209842.14
-359304	-194133.0
-319510	-183587.0
-374694	-178641.7
-397141	-178854.27
-407157	-183080.42
-351943	-189713.61
-312674	-197000.25
-348729	-203359.66
-370522	-207687.1
-393462	-209465.2
-343051	-208789.38
-308489	-206204.69
-339617	-202515.84
-359658	-198599.17
-368429	-195252.28
-335975	-193009.95
-301872	-192029.6
-329061	-192109.02
-345917	-192814.48
-365249	-193643.98
-329737	-194118.17
-297701	-193853.42
-321772	-192631.58
-333133	-190475.58
-352124	-187631.6
-327415	-184485.47
-286036	-181444.38
-301734	-178845.2
-323907	-176925.12
-358129	-175817.4
-330917	-175505.84
-301310	-175795.28
-323011	-176340.5
-368943	-176742.98
-401419	-176619.03
-359186	-175631.56
-313987	-173520.31
-329897	-170125.06
-372871	-165480.62
-447121	-159868.08
-412652	-153805.98
-354161	-147976.73
-350132	-143176.81
-368967	-140256.9
-459639	-140028.02
-411245	-143143.52
-353189	-149913.5
-384397	-160208.3
-394019	-173471.25
-443939	-188757.64
-447882	-204813.4
-383939	-220217.64
-420780	-233539.73
-436310	-243630.97
-486340	-249785.9
-463859	-251882.05
-405266	-250381.78
-422972	-246258.52
-411939	-240888.78
-434529	-235846.53
-421735	-232606.33
-373640	-232292.0
-390874	-235472.7
-398262	-242113.19
-417146	-251593.72
-385916	-262817.1
-369982	-274375.53
-399371	-284806.56
-406531	-292874.56
-422101	-297797.28
-413191	-299333.97
-388227	-297797.2
-415687	-293953.84
-407796	-288906.2
-435057	-283873.56
-411504	-279946.78
-371888	-277881.1
-385929	-277956.38
-386319	-280000.56
-403150	-283425.34
-388880	-287375.44
-363275	-290908.75
-381261	-293132.22
-379122	-293407.66
-394456	-291467.44
-380832	-287440.88
-354608	-281755.28
-370606	-275044.44
-361063	-268089.34
-391750	-261572.03
-374641	-256031.03
-349199	-251720.69
-361995	-248606.84
-359508	-246424.53
-374424	-244766.5
-363975	-243171.28
-340171	-241215.45
-345995	-238581.11
-343043	-235113.64
-359162	-230874.19
-355192	-226064.5
-323823	-220972.47
-334101	-215898.8
-335347	-211112.25
-343259	-206803.89
-331350	-203073.02
-316318	-199904.39
-322683	-197199.61
-319841	-194831.0
-326869	-192663.94
-321817	-190601.2
-306697	-188581.08
-319051	-186573.66
-323141	-184583.14
-333192	-182649.52
-332281	-180808.84
-326209	-179063.66
-335015	-177367.97
-339329	-175658.25
-353884	-173891.9
-351125	-172040.62
-330674	-170097.6
-323392	-168089.42
-327211	-166103.9
-342710	-164311.27
-330954	-162930.48
-309319	-162189.78
-317443	-162290.48
-328259	-163415.89
-338462	-165717.2
-356328	-169262.03
-345421	-174017.42
-344414	-179835.22
-325936	-186478.14
-339317	-193635.83
-347645	-200940.55
-343387	-207991.52
-357677	-214391.55
-356242	-219825.72
-391976	-224112.69
-396155	-227235.2
-387486	-229331.95
-375323	-230705.88
-377870	-231797.47
-420214	-233126.92
-410032	-235223.3
-375640	-238510.11
-355952	-243216.61
-357685	-249332.12
-407573	-256572.44
-419422	-264410.16
-395854	-272101.22
-381094	-278799.28
-383076	-283691.12
-413073	-286135.84
-421290	-285771.16
-390898	-282568.4
-385321	-276849.34
-379887	-269243.3
-387604	-260657.42
-378182	-252129.77
-368937	-244634.27
-398445	-238949.78
-400136	-235585.02
-412297	-234717.61
-403043	-236178.75
-383157	-239479.95
-390768	-243896.9
-385939	-248614.5
-401750	-252875.11
-392349	-256073.9
-389834	-257776.03
-407989	-257783.69
-400587	-256151.81
-404656	-253159.97
-390277	-249220.75
-365187	-244764.8
-375665	-240211.84
-372922	-235938.14
-384242	-232211.89
-376234	-229180.23
-360310	-226847.75
-373309	-225137.75
-380827	-223952.31
-394615	-223102.86
-383683	-222397.69
-358869	-221638.0
-393399	-220669.56
-405757	-219407.47
-411571	-217767.42
-401272	-215726.11
-345432	-213337.69
-352049	-210710.95
-345814	-207997.6
-356026	-205317.83
-343574	-202779.3
-331888	-200442.08
-340359	-198328.0
-331921	-196387.95
-335106	-194469.8
-326861	-192393.44
-308653	-189976.81
-316141	-187109.81
-314440	-183775.17
-319717	-180046.62
-319561	-176134.36
-319999	-172349.66
-352528	-169073.7
-368791	-166694.3
-350495	-165512.47
-336326	-165692.94
-321792	-167217.52
-332374	-169895.05
-330660	-173380.3
-334309	-177201.97
-321344	-180864.0
-308699	-183917.05
-326801	-186032.69
-334684	-187060.5
-343688	-187011.42
-327850	-186065.47
-314573	-184505.81
-332739	-182670.81
-338819	-180895.0
-344754	-179430.34
-350147	-178438.97
-348747	-177983.73
-382690	-178054.58
-389281	-178627.75
-408835	-179667.67
-384697	-181191.31
-373472	-183250.84
-409116	-185944.73
-415687	-189397.05
-410371	-193686.38
-397626	-198803.14
-403041	-204614.58
-450929	-210871.81
-474099	-217237.16
-446375	-223310.16
-397037	-228693.28
-375800	-233036.53
-415200	-236137.03
-411706	-237991.17
-388399	-238759.1
-364271	-238749.02
-361808	-238319.84
-424103	-237861.84
-437215	-237729.92
-450414	-238121.02
-426367	-239087.56
-394762	-240501.48
-435660	-242087.75
-438436	-243542.94
-427772	-244537.02
-393665	-244830.25
-378751	-244292.12
-424256	-242957.38
-425482	-241053.27
-411957	-238908.56
-378679	-236931.73
-360175	-235505.44
-396755	-234925.05
-399009	-235375.56
-384816	-236851.14
-358814	-239173.23
-348121	-241996.39
-383539	-244874.73
-386326	-247339.23
-376973	-248941.12
-351595	-249344.17
-340631	-248357.44
-374356	-245969.33
-377142	-242378.72
-369207	-237932.88
-346468	-233117.11
-334626	-228456.39
-365155	-224464.7
-369765	-221592.31
-361604	-220130.88
-336897	-220194.61
-326739	-221681.33
-354622	-224293.8
-357046	-227592.61
-347833	-231024.08
-332512	-234010.03
-319417	-236005.75
-342541	-236570.11
-344985	-235433.84
-345217	-232494.05
-326984	-227846.4
-311176	-221729.1
-325912	-214503.94
-327379	-206617.89
-323669	-198528.11
-310516	-190680.92
-298677	-183466.62
-309386	-177208.98
-312748	-172170.06
-318104	-168528.83
-323297	-166393.66
-320719	-165789.31
-343909	-166645.83
-359269	-168808.22
-348831	-172006.45
-328742	-175866.0
-317484	-179917.5
-335010	-183641.78
-338603	-186539.05
-331843	-188185.19
-318434	-188312.58
-309763	-186857.77
-333384	-183989.39
-337019	-180119.06
-335584	-175828.22
-325156	-171797.56
-319028	-168691.83
-349527	-167050.28
-362869	-167216.11
-366755	-169273.69
-361467	-173055.92
-350958	-178187.33
-396632	-184167.6
-411054	-190511.2
-402179	-196836.88
-385884	-202942.56
-372247	-208829.8
-425539	-214674.1
-438262	-220780.8
-421662	-227447.86
-390282	-234852.19
-379600	-242946.14
-432256	-251396.31
-441020	-259638.58
-411307	-266933.4
-376366	-272501.94
-361439	-275667.6
-396538	-276012.16
-405717	-273516.06
-389699	-268584.47
-361177	-262026.28
-357409	-254910.9
-418319	-248406.95
-440968	-243607.17
-414802	-241329.92
-380276	-241964.38
-368497	-245386.9
-416067	-251002.77
-434265	-257874.25
-404229	-264878.7
-366657	-270899.03
-355941	-274994.3
-400641	-276562.6
-410668	-275444.78
-387327	-271898.03
-361418	-266507.2
-350307	-260040.61
-393484	-253292.52
-401251	-246970.08
-378820	-241554.03
-350066	-237248.9
-339454	-233984.31
-379437	-231482.28
-386291	-229383.38
-370402	-227327.19
-343776	-225065.14
-332991	-222496.97
-367235	-219682.28
-373149	-216826.53
-360422	-214187.11
-334041	-212005.5
-323991	-210414.47
-357072	-209403.61
-363209	-208827.92
-349996	-208422.31
-326609	-207882.72
-316802	-206925.84
-343801	-205365.19
-347277	-203179.16
-339003	-200495.44
-322068	-197576.72
-314962	-194741.94
-335629	-192289.95
-341056	-190430.92
-340395	-189206.84
-331136	-188480.23
-325272	-187946.95
-358703	-187199.83
-367316	-185847.06
-366912	-183576.55
-342510	-180273.08
-328841	-176055.52
-347146	-171279.38
-351236	-166519.11
-346424	-162435.08
-332614	-159674.22
-320594	-158730.39
-337881	-159845.5
-345861	-162955.81
-342577	-167674.38
-328314	-173355.77
-317697	-179187.94
-340121	-184326.55
-353330	-188054.14
-351285	-189886.97
-338294	-189664.27
-333077	-187562.39
-364281	-184058.05
-377321	-179858.88
-375154	-175763.61
-358193	-172540.08
-351401	-170808.92
-393826	-170942.4
-411587	-173053.78
-410866	-176994.39
-385727	-182426.66
-372776	-188895.53
-424234	-195923.58
-439533	-203124.0
-421335	-210232.98
-384494	-217136.1
-368415	-223828.86
-416671	-230366.44
-428769	-236817.42
-402871	-243174.72
-363464	-249316.34
-350574	-254981.16
-396216	-259788.72
-403862	-263332.97
-380512	-265238.16
-352758	-265261.28
-348537	-263347.1
-415029	-259680.69
-439664	-254709.45
-415086	-249070.31
-375534	-243513.83
-358331	-238783.16
-424114	-235484.67
-449583	-234021.48
-421749	-234505.39
-365794	-236746.84
-348401	-240284.8
-404686	-244460.05
-420113	-248549.56
-392152	-251856.9
-351664	-253844.84
-341320	-254202.27
-392324	-252875.92
-407405	-250083.92
-382722	-246231.56
-344620	-241849.95
-333840	-237472.94
-381168	-233548.66
-394442	-230393.0
-374145	-228110.3
-340217	-226621.11
-328501	-225685.08
-374327	-224966.44
-387033	-224131.45
-368547	-222891.14
-333654	-221082.97
-321729	-218681.86
-363308	-215796.11
-373636	-212654.44
-356346	-209522.17
-324872	-206662.27
-314010	-204263.78
-350096	-202401.28
-360848	-201034.36
-343866	-199997.3
-312671	-199054.28
-305957	-197937.78
-335115	-196414.17
-346958	-194346.67
-344489	-191711.6
-329681	-188633.83
-322418	-185363.6
-352532	-182235.84
-363509	-179630.9
-360664	-177888.36
-343439	-177267.3
-330983	-177890.83
-351667	-179719.39
-358895	-182560.77
-351590	-186077.7
-334515	-189850.6
-322129	-193429.25
-349479	-196387.06
-359707	-198395.83
-363116	-199244.7
-334420	-198886.12
-320504	-197415.14
-352821	-195051.48
-368742	-192119.28
-366777	-188984.11
-341979	-186017.28
-333069	-183539.75
-385421	-181784.98
-419157	-180903.42
-403627	-180951.27
-354948	-181904.36
-344182	-183662.27
-424162	-186070.8
-465181	-188995.19
-425830	-192332.03
-359301	-196017.19
-345981	-200023.94
-431417	-204351.7
-474302	-209045.5
-430816	-214160.12
-356806	-219723.62
-341576	-225694.05
-415539	-231938.14
-443360	-238255.62
-405499	-244363.53
-343207	-249918.39
-334208	-254532.55
-407633	-257821.6
-455133	-259487.36
-412801	-259360.83
-349210	-257433.75
-343458	-253869.06
-432604	-248999.53
-494296	-243340.95
-447174	-237524.84
-357934	-232228.25
-346531	-228066.5
-434869	-225515.81
-488157	-224881.05
-431314	-226230.22
-348564	-229381.06
-339232	-233905.83
-419391	-239191.39
-456361	-244550.78
-410580	-249294.23
-344605	-252832.66
-329647	-254747.64
-405666	-254832.44
-447411	-253139.5
-407143	-249942.05
-343067	-245679.19
-326146	-240868.73
-382144	-236019.89
-403159	-231578.67
-380722	-227837.9
-336256	-224927.84
-320717	-222813.6
-364786	-221317.14
-386466	-220191.53
-370802	-219162.23
-330240	-218002.52
-313716	-216575.4
-353386	-214843.61
-378332	-212878.4
-363641	-210813.11
-317784	-208817.0
-304149	-207033.45
-351734	-205531.03
-374935	-204302.22
-354283	-203237.8
-308289	-202165.3
-298374	-200874.81
-353086	-199164.5
-381960	-196911.9
-367099	-194090.14
-323252	-190804.3
-314417	-187269.22
-376071	-183778.61
-412138	-180681.11
-381767	-178310.88
-323134	-176939.3
-314435	-176713.05
-371675	-177634.75
-400836	-179579.05
-366617	-182298.73
-315142	-185466.67
-314862	-188710.03
-371114	-191666.98
-401891	-194048.8
-369380	-195662.2
-319664	-196428.36
-315794	-196368.89
-379546	-195594.25
-416922	-194300.8
-385469	-192733.5
-333942	-191153.48
-326361	-189797.58
-408060	-188856.8
-458155	-188498.61
-417927	-188850.56
-349854	-189996.8
-339402	-191962.47
-418171	-194725.64
-457774	-198250.61
-421392	-202478.56
-354804	-207329.05
-344020	-212685.1
-420051	-218394.72
-452845	-224307.52
-414125	-230258.81
-351796	-236067.94
-339076	-241527.23
-404619	-246409.81
-428743	-250509.77
-400172	-253633.45
-345116	-255622.06
-334403	-256357.9
-400217	-255785.14
-439656	-253958.81
-416116	-251043.06
-360180	-247319.28
-348972	-243158.42
-423342	-238994.36
-462352	-235313.67
-426207	-232582.84
-361070	-231193.48
-346730	-231388.6
-417749	-233224.11
-446093	-236577.06
-412966	-241119.95
-350847	-246370.7
-338244	-251738.0
-404898	-256598.28
-432642	-260407.95
-403146	-262752.47
-347018	-263418.28
-333801	-262410.1
-393584	-259935.97
-414024	-256390.42
-386997	-252255.72
-337924	-248036.92
-326582	-244164.97
-381074	-240923.77
-401241	-238435.44
-379009	-236623.25
-335736	-235262.94
-318829	-234035.23
-376956	-232585.66
-398510	-230629.75
-374305	-227978.83
-330242	-224599.78
-314787	-220614.3
-357976	-216270.47
-374991	-211900.05
-358456	-207826.6
-321156	-204323.02
-310477	-201551.97
-353274	-199531.84
-372146	-198152.19
-354959	-197181.22
-318054	-196337.7
-308773	-195345.48
-356688	-193990.6
-382860	-192183.34
-366083	-189962.77
-329189	-187508.84
-320081	-185103.83
-371212	-183077.25
-390938	-181765.39
-370924	-181426.44
-330079	-182210.38
-318602	-184120.86
-367523	-187007.64
-386579	-190605.16
-366936	-194547.92
-324526	-198439.67
-315526	-201894.84
-369468	-204586.67
-395331	-206305.11
-375627	-206960.17
-328116	-206599.27
-319386	-205381.77
-381123	-203553.62
-412321	-201431.95
-389574	-199355.84
-335172	-197655.77
-327892	-196602.36
-399693	-196383.7
-441955	-197117.47
-408733	-198834.0
-343232	-201481.69
-335619	-204921.66
-415892	-208951.62
-460687	-213361.58
-419095	-217947.27
-347613	-222525.11
-335358	-226932.12
-417082	-231032.42
-458648	-234751.34
-425927	-238045.97
-348210	-240896.95
-333666	-243263.27
-408036	-245084.83
-445279	-246303.27
-404986	-246850.81
-339511	-246665.69
-335082	-245699.83
-419938	-243949.92
-476485	-241508.42
-435235	-238562.4
-356191	-235386.5
-346189	-232310.64
-430590	-229689.22
-473566	-227875.95
-427225	-227143.31
-350959	-227644.64
-340729	-229378.7
-421872	-232177.16
-472034	-235737.81
-425064	-239645.66
-343167	-243439.27
-333539	-246675.14
-415257	-248990.8
-466847	-250166.89
-420599	-250136.61
-335737	-248996.16
-325020	-246962.1
-402013	-244328.17
-451169	-241420.67
-407829	-238526.56
-328657	-235851.05
-319054	-233493.34
-393893	-231442.81
-444256	-229612.67
-399423	-227865.36
-322412	-226054.81
-312919	-224075.72
-383511	-221892.39
-427778	-219548.61
-386830	-217143.95
-315630	-214813.86
-305071	-212702.08
-371296	-210917.39
-415644	-209506.58
-375743	-208428.9
-314786	-207567.44
-300548	-206754.6
-375534	-205793.53
-428601	-204515.8
-384941	-202804.9
-310587	-200626.33
-298842	-198039.61
-365721	-195190.34
-423395	-192296.27
-390387	-189608.5
-317603	-187380.97
-308925	-185816.45
-383160	-185044.05
-434327	-185119.58
-398319	-186012.1
-320742	-187613.8
-310583	-189740.2
-381610	-192161.98
-426694	-194649.52
-388021	-196985.23
-318024	-198982.98
-308884	-200493.3
-380614	-201422.66
-419349	-201756.42
-390691	-201541.73
-323802	-200891.55
-315490	-199959.28
-389260	-198927.89
-438301	-198004.62
-407227	-197384.78
-330102	-197236.72
-320219	-197661.97
-402637	-198690.38
-457706	-200297.45
-421919	-202399.56
-339801	-204875.62
-329581	-207582.02
-419810	-210382.44
-470595	-213191.39
-433255	-215971.73
-345550	-218742.25
-332840	-221549.22
-422631	-224440.53
-470596	-227456.47
-428749	-230588.48
-340126	-233761.05
-328055	-236815.77
-409554	-239528.66
-463377	-241661.7
-425288	-242998.89
-342755	-243397.23
-327311	-242821.23
-431171	-241359.1
-485172	-239259.98
-454914	-236875.77
-359169	-234627.94
-340709	-232929.0
-435286	-232110.47
-483052	-232389.16
-446421	-233803.02
-350838	-236221.36
-336901	-239350.55
-428707	-242787.73
-475997	-246110.17
-437576	-248922.34
-344509	-250936.42
-330130	-251994.92
-414599	-252085.78
-465945	-251344.9
-425990	-249998.52
-337288	-248321.66
-325350	-246558.16
-407561	-244884.08
-459266	-243397.28
-417340	-242098.3
-330319	-240914.61
-318650	-239720.5
-395341	-238386.45
-446504	-236829.7
-406381	-235022.48
-324590	-233004.02
-313805	-230861.5
-386998	-228704.58
-436351	-226645.9
-396904	-224754.48
-322771	-223046.78
-308999	-221473.55
-379856	-219935.02
-428516	-218319.66
-389332	-216525.72
-313794	-214500.47
-301888	-212247.64
-368427	-209837.95
-415384	-207407.4
-378644	-205118.12
-309139	-203132.06
-297927	-201565.3
-373995	-200463.6
-410529	-199816.78
-376282	-199545.4
-308735	-199538.4
-296402	-199670.86
-379033	-199836.08
-437102	-199997.05
-402184	-200177.58
-319096	-200464.22
-304891	-200960.06
-379154	-201754.05
-440366	-202900.28
-406891	-204384.06
-321481	-206112.55
-309224	-207900.11
-383169	-209507.64
-432191	-210706.6
-395544	-211317.06
-318558	-211254.2
-309308	-210536.06
-387134	-209294.34
-440559	-207774.11
-407974	-206280.94
-324381	-205130.66
-313142	-204575.34
-394516	-204763.7
-449144	-205741.53
-421612	-207436.39
-336279	-209695.48
-320664	-212301.84
-397748	-215032.1
-442690	-217723.72
-427406	-220284.34
-350887	-222718.64
-328986	-225089.1
-380058	-227487.6
-394312	-230010.62
-391125	-232682.39
-371163	-235449.64
-359486	-238172.05
-366342	-240641.34
-384024	-242610.31
-386919	-243835.83
-372079	-244155.94
-351190	-243541.64
-385557	-242110.03
-371011	-240138.19
-353156	-237989.75
-373599	-236074.52
-403288	-234803.58
-410191	-234519.86
-388220	-235420.27
-362739	-237495.64
-370997	-240546.9
-391425	-244239.16
-412817	-248152.27
-400477	-251840.97
-376227	-254876.8
-359014	-256938.28
-366373	-257858.38
-399907	-257641.19
-401656	-256439.69
-369864	-254493.44
-344914	-252094.77
-347154	-249545.23
-391038	-247102.47
-404766	-244946.11
-368421	-243145.38
-332463	-241670.38
-331542	-240433.27
-381702	-239312.14
-417673	-238180.25
-378137	-236923.27
-322914	-235467.6
-317440	-233794.75
-377264	-231934.6
-439322	-229949.42
-396690	-227919.92
-314599	-225924.61
-296676	-224028.86
-371792	-222273.5
-460532	-220669.42
-495989	-219193.4
-335574	-217846.39
-249212	-216600.5
-346037	-215402.88
-466623	-214200.48
-533390	-212933.03
-432887	-211579.52
-250269	-210148.83
-335040	-208601.45
-461677	-206918.98
-534268	-205094.9
-459790	-203173.92
-257199	-201265.89
-340459	-199439.62
-472117	-197795.9
-535461	-196446.33
-484069	-195521.94
-276422	-195183.5
-344222	-195488.05
-474745	-196449.5
-535862	-198024.03
-485763	-200123.67
-281584	-202650.94
-351419	-205391.97
-480067	-208120.66
-538170	-210608.0
-487256	-212665.7
-276487	-214201.69
-337232	-215119.25
-471369	-215397.28
-535596	-215092.5
-486489	-214342.38
-277761	-213383.55
-342238	-212413.12
-475372	-211635.5
-536076	-211229.92
-491094	-211343.47
-286831	-212102.73
-355661	-213491.19
-485997	-215419.34
-537350	-217731.36
-496171	-220235.22
-299845	-222761.19
-363126	-225076.12
-495405	-226977.89
-539032	-228317.98
-497877	-229022.8
-310717	-229125.47
-379366	-228655.98
-496257	-227698.03
-539638	-226359.7
-489513	-224769.84
-303879	-223086.03
-369121	-221386.39
-481467	-219730.25
-537407	-218147.52
-458704	-216681.55
-291159	-215401.92
-363553	-214340.06
-474961	-213550.22
-533381	-213087.97
-427832	-213050.67
-298256	-213530.95
-375171	-214558.1
-474559	-216119.88
-509683	-218130.25
-371034	-220476.61
-304622	-222972.03
-371899	-225384.28
-457687	-227469.08
-456966	-228999.0
-347898	-229813.97
-316000	-229817.19
-376537	-229001.2
-441287	-227448.06
-427524	-225298.05
-342099	-222754.81
-314447	-220032.08
-361890	-217340.67
-415550	-214849.58
-396812	-212655.44
-333626	-210799.2
-316649	-209264.58
-361276	-208004.62
-402406	-206949.33
-382572	-206015.33
-328563	-205146.31
-312227	-204322.33
-356049	-203570.94
-400081	-202948.6
-383498	-202522.48
-328453	-202370.89
-312766	-202570.45
-356610	-203187.53
-396092	-204259.86
-378415	-205784.34
-330173	-207733.05
-319680	-210063.11
-363159	-212725.5
-404044	-215657.81
-383147	-218783.19
-340884	-222019.4
-323971	-225290.6
-365258	-228525.4
-397036	-231651.7
-375982	-234591.8
-333233	-237278.47
-323464	-239673.6
-365479	-241771.86
-395336	-243602.48
-375324	-245216.12
-332883	-246687.42
-321953	-248112.16
-362636	-249585.94
-393528	-251179.84
-373155	-252913.28
-333347	-254749.69
-325587	-256607.06
-364039	-258365.1
-389922	-259880.14
-374283	-260996.78
-344731	-261594.19
-338342	-261616.56
-384668	-261084.73
-404168	-260105.84
-394024	-258833.02
-354585	-257464.73
-342997	-256219.31
-385574	-255297.58
-409956	-254846.53
-389549	-254924.95
-353611	-255506.05
-347524	-256503.4
-388811	-257796.2
-411066	-259250.78
-389387	-260739.23
-353316	-262176.25
-346052	-263544.1
-384841	-264888.97
-401881	-266295.03
-381969	-267838.97
-352227	-269569.0
-349239	-271485.16
-383742	-273527.94
-401659	-275561.28
-384328	-277375.16
-354025	-278733.62
-347904	-279427.56
-383276	-279321.22
-398698	-278374.25
-379241	-276638.34
-350990	-274272.25
-346926	-271515.88
-380567	-268657.78
-391779	-265973.16
-372636	-263655.2
-347926	-261801.98
-344608	-260391.17
-375586	-259289.86
-386141	-258293.08
-367824	-257163.1
-346657	-255674.52
-345463	-253662.84
-371010	-251059.58
-376584	-247917.97
-359554	-244371.69
-341001	-240627.75
-339996	-236913.9
-364215	-233419.16
-370331	-230271.11
-355667	-227518.14
-340941	-225124.75
-340537	-222986.17
-367316	-220947.19
-370254	-218860.6
-360972	-216614.33
-338406	-214171.02
-334120	-211564.7
-356799	-208889.88
-363462	-206286.22
-348208	-203897.5
-330440	-201846.8
-329810	-200211.86
-350695	-199006.12
-357487	-198186.0
-344291	-197656.95
-332341	-197308.44
-337836	-197050.34
-359042	-196828.92
-362447	-196642.17
-346612	-196524.31
-333026	-196537.12
-336296	-196764.25
-362663	-197276.92
-370932	-198106.1
-351255	-199219.67
-336000	-200517.78
-338276	-201877.3
-363515	-203167.27
-370096	-204265.89
-351865	-205068.64
-337642	-205512.3
-339607	-205580.31
-365662	-205355.28
-370905	-204958.19
-356602	-204480.31
-342861	-203989.36
-345752	-203518.47
-376415	-203093.25
-383352	-202763.31
-367424	-202504.27
-351757	-202278.36
-353643	-202064.72
-388080	-201890.58
-400607	-201886.77
-384203	-202149.14
-354534	-202765.02
-349064	-203805.78
-385858	-205305.23
-407504	-207313.08
-389512	-209760.22
-352319	-212498.31
-337351	-215336.56
-390302	-218063.22
-421701	-220554.83
-407419	-222671.73
-357292	-224314.23
-338221	-225440.66
-378587	-226064.34
-409114	-226313.16
-392029	-226288.16
-347321	-226070.22
-336989	-225722.86
-384355	-225284.86
-423143	-224844.84
-401876	-224425.97
-349660	-224021.97
-338019	-223623.56
-382807	-223227.47
-417358	-222911.34
-397468	-222706.36
-347285	-222616.38
-334272	-222628.61
-374559	-222700.73
-405204	-222834.14
-384470	-222963.2
-341039	-222988.47
-332885	-222822.55
-372609	-222398.86
-393293	-221758.31
-373341	-220933.64
-335781	-219976.48
-329362	-218962.89
-368636	-217969.11
-392009	-217117.27
-371962	-216441.02
-335601	-215908.81
-328841	-215434.8
-366685	-214915.2
-391371	-214288.42
-374017	-213465.44
-335831	-212387.81
-327197	-211045.27
-361925	-209518.9
-386397	-207974.38
-372546	-206563.1
-335661	-205421.44
-328762	-204635.23
-366797	-204264.02
-384028	-204290.81
-364070	-204596.27
-334366	-204989.31
-331357	-205254.86
-368594	-205217.55
-379945	-204752.52
-367384	-203793.83
-335147	-202361.8
-329567	-200566.28
-359986	-198598.3
-370519	-196681.36
-353009	-195019.84
-331631	-193766.56
-329396	-193017.16
-360444	-192799.83
-372023	-193074.5
-354498	-193736.97
-333866	-194648.75
-333762	-195676.69
-365053	-196714.17
-375919	-197694.5
-361034	-198577.06
-341791	-199345.44
-342324	-200005.39
-376422	-200572.83
-388014	-201060.7
-370396	-201460.61
-349007	-201751.34
-350242	-201921.12
-385685	-201980.22
-396309	-201974.64
-375221	-201977.61
-349510	-202087.6
-351372	-202426.0
-390508	-203111.05
-404116	-204240.95
-381984	-205852.17
-352826	-207911.58
-352289	-210320.44
-389969	-212926.19
-397561	-215552.47
-374157	-218014.12
-349955	-220153.94
-350578	-221877.81
-385584	-223166.05
-393313	-224077.92
-372597	-224718.6
-348288	-225215.34
-349025	-225694.64
-382288	-226247.64
-387704	-226914.97
-363869	-227664.34
-348165	-228403.25
-346631	-229012.64
-389437	-229369.08
-398717	-229392.4
-386616	-229047.45
-355150	-228376.02
-349902	-227484.33
-381626	-226529.86
-386609	-225696.33
-367085	-225136.9
-346865	-224950.69
-348231	-225164.69
-375784	-225723.38
-382583	-226500.47
-367314	-227306.7
-345472	-227935.08
-340256	-228201.27
-365292	-227972.27
-375050	-227192.58
-361777	-225878.33
-340135	-224120.55
-339321	-222066.27
-364116	-219887.77
-367854	-217757.94
-352251	-215811.78
-338812	-214136.39
-342268	-212770.12
-365864	-211706.27
-366210	-210909.97
-351626	-210317.23
-341506	-209863.1
-346901	-209496.58
-371231	-209184.45
-371778	-208915.9
-355789	-208680.22
-343344	-208471.16
-347451	-208282.27
-365640	-208101.8
-365559	-207916.36
-349439	-207703.45
-338721	-207445.39
-343004	-207141.34
-367576	-206805.02
-369437	-206470.7
-351949	-206176.2
-338356	-205958.48
-341395	-205843.44
-364224	-205832.83
-373786	-205902.11
-354641	-205996.33
-341622	-206037.23
-342994	-205941.77
-375885	-205630.62
-378615	-205061.23
-366315	-204222.48
-344249	-203154.5
-346311	-201935.67
-375436	-200678.22
-379063	-199516.86
-362668	-198577.12
-347742	-197962.28
-354060	-197740.12
-384387	-197934.69
-386266	-198536.45
-367482	-199498.3
-352104	-200752.52
-359991	-202225.28
-394481	-203845.53
-393848	-205564.78
-370692	-207346.8
-353791	-209166.84
-359277	-211006.95
-392079	-212843.55
-391491	-214654.9
-369349	-216404.94
-352592	-218048.6
-359819	-219541.92
-392903	-220844.36
-390501	-221939.0
-368665	-222821.95
-352261	-223507.89
-358473	-224026.08
-388344	-224407.62
-385984	-224684.56
-364377	-224865.25
-349352	-224936.42
-354031	-224863.05
-381582	-224594.55
-380545	-224089.53
-361152	-223317.67
-346738	-222283.95
-353820	-221040.14
-381335	-219684.22
-378904	-218361.58
-358444	-217229.89
-344049	-216440.12
-350816	-216110.55
-377918	-216301.7
-374886	-217005.34
-354186	-218122.89
-341152	-219483.25
-346421	-220874.12
-378699	-222071.75
-377271	-222888.81
-362357	-223175.64
-341116	-222863.0
-345113	-221969.17
-371572	-220599.95
-370111	-218925.0
-353345	-217125.66
-342109	-215368.95
-349274	-213787.28
-377718	-212459.56
-374662	-211403.31
-354256	-210562.33
-342262	-209832.69
-351111	-209104.12
-375504	-208290.6
-370050	-207349.5
-350914	-206276.89
-341680	-205117.94
-350219	-203968.48
-373481	-202957.05
-366849	-202213.81
-349999	-201828.31
-343796	-201836.2
-350690	-202224.81
-371378	-202931.69
-365257	-203854.2
-347114	-204851.05
-340260	-205775.23
-348837	-206503.8
-369420	-206954.03
-364447	-207092.11
-349239	-206916.3
-343291	-206460.73
-352623	-205794.36
-374367	-205006.8
-369345	-204195.94
-354246	-203442.02
-349807	-202809.64
-358971	-202354.27
-378471	-202122.23
-372526	-202147.92
-357057	-202438.06
-354384	-202976.62
-365879	-203734.78
-388459	-204671.5
-382334	-205735.0
-363377	-206849.42
-358729	-207932.62
-366797	-208917.17
-396399	-209754.83
-390049	-210435.25
-373942	-210968.67
-358242	-211402.95
-365413	-211811.27
-390427	-212283.52
-384866	-212912.44
-362161	-213758.47
-352901	-214842.83
-360049	-216145.89
-379301	-217605.72
-372782	-219131.5
-355515	-220604.0
-351655	-221904.78
-360681	-222941.19
-381820	-223659.75
-373920	-224058.02
-357059	-224167.75
-354539	-224052.97
-363321	-223800.19
-385558	-223495.8
-376911	-223214.64
-358562	-222990.81
-351736	-222822.05
-361654	-222678.0
-385298	-222508.03
-377792	-222261.89
-357208	-221886.97
-346467	-221351.33
-353908	-220654.12
-376429	-219823.34
-372597	-218913.53
-353433	-217979.31
-343914	-217072.92
-352447	-216238.69
-375150	-215503.3
-369551	-214876.86
-351997	-214338.73
-344014	-213857.97
-352614	-213404.66
-374155	-212955.17
-367449	-212502.42
-349517	-212040.84
-341342	-211576.31
-349209	-211124.03
-371876	-210699.73
-367449	-210319.52
-348780	-209980.8
-340557	-209673.77
-349044	-209388.36
-378287	-209110.69
-373438	-208843.48
-358184	-208583.9
-341457	-208345.17
-349878	-208144.98
-377491	-208006.89
-373159	-207956.86
-353981	-207997.16
-341446	-208116.0
-352609	-208285.86
-383816	-208465.88
-378247	-208618.42
-357764	-208700.1
-343001	-208680.38
-351661	-208546.0
-381959	-208302.11
-381954	-207979.81
-361857	-207612.45
-344918	-207233.64
-354021	-206868.5
-387612	-206528.48
-386739	-206217.9
-363666	-205921.98
-344950	-205621.25
-354432	-205298.27
-388323	-204947.39
-388116	-204591.23
-366109	-204268.62
-345096	-204037.62
-351768	-203961.17
-383548	-204092.95
-386827	-204475.89
-368484	-205119.14
-345326	-206001.75
-348787	-207070.17
-380497	-208245.78
-387738	-209450.17
-370334	-210614.92
-344354	-211699.61
-346513	-212696.98
-379718	-213631.2
-390454	-214562.61
-374730	-215563.03
-345766	-216703.12
-346005	-218024.5
-377739	-219522.73
-387215	-221148.61
-371694	-222802.34
-345829	-224347.69
-348119	-225630.95
-387861	-226499.16
-393676	-226843.52
-379764	-226598.5
-347574	-225771.66
-348499	-224429.52
-380869	-222695.17
-389578	-220737.36
-369152	-218736.84
-343124	-216871.19
-345194	-215287.69
-377073	-214088.0
-384140	-213329.58
-365202	-213014.4
-340077	-213105.0
-342651	-213528.06
-374693	-214185.77
-384136	-214976.28
-365099	-215793.81
-339003	-216545.61
-341897	-217151.27
-374008	-217542.1
-381815	-217675.05
-363516	-217521.5
-337044	-217081.8
-340004	-216378.08
-371815	-215452.53
-380765	-214373.64
-363927	-213218.69
-339029	-212077.95
-341000	-211034.31
-372954	-210150.36
-383447	-209467.22
-366660	-208988.94
-339559	-208692.67
-341390	-208524.12
-373234	-208407.77
-385837	-208270.5
-369201	-208047.45
-340146	-207705.83
-342116	-207242.98
-385749	-206685.4
-389362	-206100.5
-371899	-205566.23
-342219	-205170.22
-342896	-204981.27
-375597	-205035.53
-387704	-205337.38
-372262	-205850.58
-343221	-206514.02
-345201	-207245.25
-385222	-207953.2
-387214	-208571.23
-381582	-209047.73
-349604	-209376.97
-343862	-209579.05
-376631	-209696.47
-390174	-209789.77
-375151	-209915.52
-344251	-210124.9
-344519	-210442.88
-377281	-210866.08
-391643	-211376.34
-378866	-211938.16
-344889	-212522.0
-341408	-213099.73
-373499	-213650.42
-390053	-214170.69
-378871	-214667.52
-343074	-215161.66
-338132	-215664.61
-369282	-216169.19
-388572	-216655.69
-379058	-217088.1
-341279	-217430.48
-335737	-217640.1
-368284	-217678.03
-390829	-217531.45
-382354	-217216.66
-340320	-216788.69
-334311	-216316.52
-369967	-215870.67
-394428	-215519.67
-384761	-215312.31
-343364	-215275.31
-337521	-215389.88
-371412	-215597.86
-394786	-215824.78
-386672	-215993.08
-346144	-216051.95
-340195	-215974.67
-374529	-215767.47
-397683	-215482.83
-388851	-215205.6
-345798	-215045.16
-338752	-215092.67
-371458	-215400.33
-394388	-215975.0
-385149	-216769.36
-343711	-217693.64
-339217	-218613.4
-373519	-219372.19
-390433	-219832.5
-387144	-219889.73
-342731	-219512.38
-330168	-218723.0
-361910	-217599.08
-384879	-216265.1
-377059	-214865.36
-336786	-213550.38
-329908	-212435.81
-360464	-211584.27
-383339	-211008.53
-376194	-210673.05
-338025	-210517.34
-329329	-210456.27
-360264	-210400.11
-384671	-210281.33
-377718	-210064.47
-336133	-209758.34
-329579	-209392.22
-362620	-209003.22
-386802	-208637.81
-379824	-208334.86
-337003	-208129.8
-330336	-208030.3
-364319	-208021.75
-390601	-208083.47
-383952	-208195.75
-338892	-208359.14
-331735	-208576.3
-365926	-208853.83
-392591	-209205.7
-386706	-209644.42
-341315	-210182.52
-334115	-210807.14
-368866	-211479.16
-394794	-212146.98
-389699	-212753.47
-343953	-213258.7
-335959	-213630.34
-370860	-213854.64
-396368	-213950.03
-390864	-213962.05
-343687	-213966.23
-336242	-214030.45
-371092	-214203.17
-396396	-214512.12
-389837	-214951.61
-345132	-215495.0
-336672	-216080.48
-381326	-216622.84
-398601	-217049.34
-395614	-217298.66
-348532	-217356.73
-335551	-217231.94
-369460	-216960.05
-392766	-216600.56
-383779	-216219.08
-342227	-215884.06
-338190	-215634.97
-370269	-215477.98
-389129	-215393.1
-379285	-215334.89
-341660	-215258.53
-338354	-215114.72
-370284	-214865.33
-386637	-214499.73
-373872	-214031.66
-340206	-213506.05
-339796	-212977.66
-372445	-212501.55
-384291	-212129.12
-369409	-211889.89
-338956	-211799.8
-341458	-211851.69
-373718	-212020.6
-383592	-212279.55
-367797	-212598.02
-337632	-212961.22
-340063	-213360.56
-373246	-213794.73
-384029	-214270.56
-367991	-214787.33
-337800	-215342.78
-339917	-215916.84
-372744	-216478.33
-383257	-216992.48
-367855	-217419.44
-337891	-217732.6
-340787	-217915.48
-374176	-217970.17
-384051	-217920.72
-368482	-217795.95
-337235	-217632.08
-340567	-217451.55
-374476	-217261.89
-383759	-217054.1
-367868	-216792.25
-334241	-216432.39
-339796	-215921.98
-385242	-215218.89
-387646	-214315.47
-373831	-213222.47
-340239	-211993.72
-338632	-210703.94
-372172	-209445.25
-382722	-208314.7
-367403	-207387.1
-335930	-206714.03
-339397	-206307.97
-373878	-206146.19
-383581	-206182.39
-365567	-206348.97
-334720	-206581.28
-338575	-206822.94
-374002	-207038.02
-385188	-207220.75
-369534	-207382.2
-338907	-207552.0
-342202	-207760.25
-376943	-208030.02
-387459	-208375.39
-371489	-208788.2
-339863	-209250.86
-342792	-209733.92
-377755	-210209.36
-389157	-210663.36
-372994	-211092.19
-341156	-211512.14
-345167	-211945.55
-381817	-212417.48
-393531	-212950.72
-377439	-213546.6
-344417	-214189.95
-347461	-214840.14
-383833	-215443.5
-394179	-215949.75
-377180	-216315.33
-342871	-216524.5
-345725	-216588.17
-381169	-216551.19
-392726	-216488.9
-376389	-216478.23
-341148	-216599.5
-343472	-216900.88
-376480	-217393.27
-386917	-218046.47
-368459	-218782.2
-341269	-219493.73
-343877	-220059.95
-387195	-220369.22
-389979	-220352.64
-377021	-219974.44
-342651	-219265.44
-340862	-218294.2
-373616	-217168.64
-384345	-216017.14
-369818	-214954.55
-337668	-214072.6
-341443	-213416.95
-375584	-212991.97
-384711	-212765.17
-368951	-212670.14
-338559	-212632.52
-342536	-212578.88
-374896	-212460.36
-383860	-212260.9
-369339	-211986.36
-339177	-211668.23
-342792	-211344.03
-375301	-211055.14
-383962	-210835.25
-368929	-210692.0
-338303	-210615.4
-341755	-210574.64
-370912	-210539.61
-378574	-210486.2
-363572	-210396.7
-337145	-210270.84
-341524	-210120.56
-371459	-209977.8
-378525	-209880.53
-364167	-209851.42
-339786	-209897.66
-345741	-210004.0
-374364	-210145.9
-379396	-210289.86
-364514	-210393.28
-340017	-210424.39
-344722	-210368.31
-372913	-210243.27
-378639	-210095.88
-363409	-209981.12
-339395	-209959.2
-344373	-210076.22
-372826	-210363.1
-379957	-210818.55
-365301	-211397.44
-342284	-212022.9
-348864	-212593.7
-380149	-213014.64
-383566	-213208.98
-372278	-213121.3
-345809	-212743.58
-349738	-212104.52
-378202	-211282.6
-382769	-210388.08
-366413	-209533.33
-350527	-208820.4
-353343	-208327.53
-379644	-208105.66
-382234	-208170.25
-365525	-208492.83
-343772	-209015.1
-350097	-209658.78
-377788	-210349.98
-380611	-211027.44
-365178	-211638.22
-343533	-212149.9
-349372	-212548.61
-376411	-212849.61
-379912	-213084.7
-363654	-213287.36
-341919	-213493.1
-348071	-213732.8
-374967	-214041.64
-377981	-214449.06
-360859	-214965.78
-340285	-215586.33
-347606	-216287.52
-375511	-217039.72
-377595	-217800.9
-361587	-218507.98
-341101	-219090.48
-346921	-219476.86
-373269	-219618.9
-375879	-219492.83
-360326	-219095.77
-339316	-218458.52
-346447	-217640.3
-374209	-216736.95
-378011	-215860.45
-363494	-215111.11
-340852	-214570.66
-347382	-214283.45
-375695	-214263.38
-378409	-214482.34
-363194	-214863.83
-341857	-215303.86
-349763	-215684.61
-380169	-215906.95
-379722	-215903.4
-366616	-215630.12
-341731	-215093.94
-346304	-214337.4
-372242	-213447.5
-374554	-212535.06
-360464	-211702.06
-339762	-211036.73
-345327	-210597.53
-371302	-210416.23
-374157	-210488.94
-358282	-210769.95
-337762	-211188.02
-343967	-211655.38
-371132	-212088.88
-374187	-212418.25
-359712	-212583.1
-338693	-212547.84
-347292	-212300.67
-373559	-211861.5
-377315	-211274.83
-363257	-210593.58
-340397	-209884.36
-346992	-209213.22
-375146	-208646.97
-380315	-208243.16
-366996	-208034.8
-342912	-208037.5
-348879	-208238.4
-376637	-208604.66
-382217	-209085.45
-369067	-209608.17
-344066	-210100.02
-349719	-210489.56
-376737	-210726.08
-381031	-210786.56
-366700	-210670.17
-343046	-210411.14
-350217	-210066.52
-377867	-209716.08
-381629	-209448.16
-366503	-209336.1
-344105	-209437.81
-351627	-209778.94
-378239	-210357.5
-380458	-211140.89
-365945	-212063.23
-345293	-213045.38
-353401	-214000.81
-381684	-214856.66
-382144	-215560.33
-372640	-216068.83
-346376	-216377.23
-348408	-216496.48
-374457	-216459.14
-381205	-216309.52
-366526	-216085.42
-342856	-215823.03
-349651	-215544.52
-376847	-215267.2
-379903	-214999.78
-364965	-214736.69
-340979	-214472.66
-348117	-214199.36
-375072	-213915.34
-378187	-213624.94
-365718	-213327.39
-341766	-213028.8
-347716	-212732.19
-375484	-212444.05
-379554	-212171.62
-366677	-211912.06
-342201	-211666.36
-347785	-211431.55
-374119	-211210.06
-378163	-211007.83
-365057	-210823.52
-340574	-210659.88
-346447	-210515.03
-373252	-210389.92
-377992	-210284.53
-364810	-210188.34
-340284	-210095.31
-347457	-209997.45
-373797	-209896.89
-377452	-209804.27
-363706	-209729.53
-339724	-209693.25
-346393	-209717.31
-371217	-209828.06
-375199	-210047.39
-362726	-210377.94
-339104	-210811.66
-345674	-211319.48
-371762	-211863.16
-375429	-212393.34
-361856	-212846.97
-340545	-213166.92
-350114	-213303.97
-379840	-213228.89
-379160	-212941.1
-366055	-212448.98
-341854	-211792.86
-348576	-211022.4
-375511	-210202.2
-375904	-209402.02
-360995	-208675.12
-340350	-208065.42
-349955	-207597.19
-376126	-207284.95
-376722	-207130.31
-360267	-207115.12
-342242	-207217.64
-351711	-207411.77
-376338	-207678.56
-374418	-208005.42
-360366	-208375.73
-343814	-208780.4
-355816	-209209.94
-381037	-209662.97
-378351	-210140.31
-361058	-210632.88
-343370	-211132.78
-352871	-211627.94
-378622	-212110.3
-381931	-212573.38
-364649	-213003.98
-346342	-213391.8
-357959	-213723.62
-383735	-213991.61
-380054	-214193.12
-361681	-214319.62
-344067	-214368.67
-356599	-214339.34
-383109	-214242.58
-377809	-214100.53
-356924	-213935.89
-342543	-213777.53
-355569	-213654.98
-378893	-213600.89
-382232	-213642.19
-358817	-213791.3
-344192	-214045.34
-356417	-214384.38
-381150	-214778.08
-375101	-215189.73
-356074	-215569.62
-345017	-215870.08
-359542	-216050.0
-387680	-216085.66
-379336	-215975.3
-362098	-215723.94
-344717	-215355.61
-354610	-214900.25
-376759	-214398.3
-373600	-213891.69
-357189	-213409.19
-340989	-212974.19
-350898	-212600.27
-373569	-212293.75
-371096	-212061.03
-355436	-211897.23
-339424	-211799.28
-349532	-211760.45
-373177	-211776.1
-371366	-211841.33
-354137	-211940.58
-339917	-212055.55
-352078	-212160.64
-375348	-212231.45
-370976	-212248.31
-354375	-212189.7
-342295	-212046.94
-352970	-211824.06
-374561	-211543.31
-369082	-211242.03
-352098	-210957.47
-341359	-210727.23
-352914	-210579.22
-374460	-210527.97
-367948	-210569.33
-350159	-210669.72
-340487	-210781.02
-353116	-210844.94
-376539	-210810.58
-371111	-210645.88
-353873	-210337.28
-343431	-209904.77
-357443	-209397.89
-382809	-208894.05
-377133	-208485.83
-359538	-208254.61
-345343	-208263.6
-357591	-208538.95
-381374	-209068.97
-377224	-209802.42
-359800	-210645.64
-347805	-211486.84
-361081	-212209.97
-389627	-212719.83
-380442	-212960.7
-366358	-212910.61
-350513	-212600.77
-358556	-212098.3
-384220	-211501.33
-379320	-210920.52
-360916	-210449.92
-345436	-210159.9
-358281	-210080.69
-383826	-210207.62
-378362	-210505.73
-358784	-210910.17
-343809	-211349.69
-362763	-211756.23
-385195	-212088.2
-379080	-212333.22
-359848	-212500.31
-344765	-212623.72
-357134	-212746.73
-384017	-212916.42
-379388	-213171.53
-359768	-213524.42
-344181	-213964.8
-356777	-214457.33
-383317	-214954.8
-380026	-215407.47
-362554	-215762.39
-344279	-215983.67
-356146	-216049.19
-383767	-215961.61
-380306	-215745.02
-360683	-215428.86
-342017	-215049.8
-353334	-214639.31
-380857	-214228.47
-378229	-213844.53
-359213	-213502.62
-340382	-213217.11
-351765	-212998.1
-377594	-212861.66
-374604	-212828.25
-355552	-212910.14
-337457	-213115.75
-349200	-213437.6
-375370	-213854.9
-372422	-214330.55
-353806	-214804.1
-337831	-215205.4
-350219	-215459.19
-374777	-215502.97
-372483	-215297.7
-361782	-214824.9
-341171	-214106.16
-348706	-213187.75
-375498	-212144.23
-374610	-211066.97
-357854	-210040.61
-338902	-209138.5
-351329	-208408.69
-378929	-207876.98
-377963	-207545.77
-359894	-207391.05
-341166	-207379.27
-352438	-207468.81
-380557	-207625.62
-379322	-207826.33
-361194	-208050.23
-342049	-208284.6
-354248	-208513.08
-383102	-208719.56
-381601	-208885.98
-363185	-208982.06
-343184	-208980.31
-356111	-208854.86
-386862	-208598.53
-384271	-208231.22
-363793	-207791.48
-342975	-207343.56
-354783	-206960.86
-384026	-206724.6
-383725	-206706.11
-364091	-206945.47
-342941	-207449.23
-354100	-208180.3
-383441	-209071.39
-383594	-210036.81
-365704	-210980.19
-345027	-211821.88
-356866	-212506.48
-386653	-213021.1
-385336	-213396.28
-365340	-213690.28
-343459	-213979.33
-355439	-214332.64
-385373	-214801.92
-385626	-215406.42
-365951	-216118.52
-345107	-216873.84
-353490	-217578.45
-387102	-218131.44
-384806	-218451.7
-369675	-218482.06
-345401	-218219.08
-353624	-217699.3
-383170	-217005.22
-381285	-216248.97
-361367	-215542.19
-340482	-214983.88
-352704	-214634.53
-382331	-214513.14
-382083	-214597.83
-363169	-214825.02
-340581	-215113.77
-352404	-215376.17
-380750	-215542.16
-379122	-215574.55
-358795	-215466.47
-338095	-215248.19
-349891	-214968.8
-376885	-214690.03
-374576	-214471.92
-354585	-214351.75
-336973	-214345.0
-350188	-214435.53
-377162	-214586.98
-374609	-214752.6
-354847	-214879.0
-337201	-214922.8
-350753	-214853.73
-378157	-214662.73
-374945	-214360.81
-354989	-213964.88
-336613	-213500.6
-350177	-212986.94
-378098	-212438.77
-377566	-211865.6
-356816	-211267.48
-336430	-210648.95
-349282	-210015.17
-376746	-209380.81
-375147	-208774.2
-355272	-208228.33
-337043	-207780.02
-349857	-207461.89
-377159	-207294.62
-376287	-207285.19
-358916	-207416.47
-338651	-207660.12
-355167	-207971.22
-386414	-208302.61
-382331	-208617.36
-369127	-208884.9
-346581	-209100.86
-355599	-209271.84
-383753	-209417.97
-381607	-209569.73
-360588	-209751.39
-342219	-209981.47
-355464	-210262.05
-384251	-210584.5
-383173	-210934.89
-361463	-211292.92
-343047	-211645.12
-357657	-211981.98
-387169	-212307.94
-383203	-212641.58
-360767	-213001.56
-343144	-213405.73
-356570	-213859.02
-384159	-214350.45
-380297	-214856.19
-360768	-215332.64
-345156	-215733.0
-358692	-216010.9
-385562	-216134.83
-381490	-216101.36
-359318	-215930.75
-342279	-215671.16
-356356	-215384.42
-384951	-215137.84
-380982	-214994.7
-357901	-214993.53
-340986	-215145.12
-355127	-215426.55
-382417	-215787.61
-376634	-216168.95
-354232	-216505.95
-339271	-216750.48
-353818	-216876.6
-379361	-216888.72
-373384	-216822.39
-352175	-216725.98
-337892	-216655.84
-352473	-216654.34
-378497	-216742.12
-372709	-216913.42
-357130	-217126.25
-342111	-217322.45
-356500	-217432.69
-385296	-217395.84
-378139	-217180.3
-360244	-216778.28
-340564	-216226.31
-353079	-215582.92
-379911	-214924.9
-371801	-214334.3
-346441	-213869.44
-335262	-213558.72
-351897	-213391.58
-378949	-213325.08
-370023	-213295.0
-346986	-213222.28
-337307	-213037.58
-354271	-212694.03
-379536	-212181.19
-370098	-211525.44
-347042	-210780.4
-337058	-210018.97
-356387	-209314.02
-383697	-208728.78
-372692	-208307.02
-347148	-208057.03
-336086	-207961.4
-356686	-207981.19
-382518	-208072.81
-370005	-208200.72
-346233	-208335.03
-338496	-208463.19
-357551	-208586.08
-384327	-208715.81
-372401	-208867.77
-346911	-209039.1
-339023	-209212.78
-359406	-209354.55
-385836	-209424.95
-372812	-209391.83
-347484	-209230.55
-338891	-208945.12
-359299	-208572.36
-387027	-208186.2
-375080	-207889.58
-349694	-207785.77
-340390	-207965.97
-361606	-208485.12
-391284	-209352.58
-381361	-210526.16
-354993	-211905.19
-343749	-213351.72
-363356	-214710.73
-396297	-215839.38
-385801	-216636.28
-364254	-217046.55
-342209	-217081.48
-356494	-216802.0
-385754	-216316.06
-376641	-215757.86
-350722	-215250.52
-339406	-214890.38
-355664	-214729.95
-384471	-214776.92
-372867	-214999.8
-347596	-215329.23
-334490	-215683.94
-353157	-215985.75
-382720	-216180.53
-373627	-216249.19
-346976	-216196.69
-334410	-216055.11
-352414	-215867.2
-387961	-215679.17
-375350	-215533.83
-348366	-215447.77
-336934	-215417.92
-355870	-215421.78
-383946	-215430.36
-377191	-215416.1
-357069	-215349.11
-343544	-215213.36
-354453	-215003.1
-374561	-214722.95
-378230	-214380.3
-366659	-213975.34
-346582	-213510.39
-351071	-212981.2
-369874	-212386.25
-375989	-211729.22
-362268	-211023.77
-342302	-210308.64
-346086	-209639.56
-366964	-209090.4
-374521	-208738.2
-360028	-208647.73
-339149	-208863.48
-343017	-209388.84
-363576	-210182.11
-372357	-211153.22
-358781	-212171.78
-339611	-213092.88
-345802	-213772.06
-367290	-214093.28
-377925	-213987.78
-375345	-213438.2
-344061	-212504.4
-346545	-211291.64
-369405	-209946.9
-373560	-208631.56
-353946	-207492.02
-339494	-206643.2
-355121	-206149.5
-383336	-206023.17
-380544	-206227.38
-356487	-206680.88
-341188	-207280.95
-357439	-207918.36
-389130	-208500.12
-387368	-208961.88
-362557	-209266.9
-344915	-209412.17
-360651	-209417.31
-389043	-209323.7
-388364	-209181.48
-363894	-209036.9
-344236	-208930.0
-358093	-208886.62
-388186	-208922.47
-388695	-209043.66
-363788	-209244.39
-342841	-209513.3
-356313	-209829.19
-386844	-210167.11
-388424	-210501.28
-364349	-210802.67
-341049	-211048.19
-353416	-211218.52
-382985	-211309.34
-385406	-211335.75
-360957	-211330.64
-339238	-211346.66
-351141	-211446.3
-376544	-211697.52
-379707	-212157.64
-361054	-212857.48
-341392	-213797.14
-348434	-214934.5
-368347	-216188.17
-380549	-217442.03
-369523	-218560.45
-346077	-219415.97
-351467	-219897.4
-373762	-219936.14
-390189	-219510.23
-393882	-218647.81
-351825	-217444.42
-346411	-216018.69
-367878	-214508.33
-387541	-213043.52
-378361	-211730.45
-350661	-210645.69
-346811	-209821.2
-364917	-209249.6
-382792	-208889.05
-373724	-208682.88
-344602	-208581.55
-343250	-208544.17
-364591	-208549.1
-385793	-208591.4
-376372	-208683.23
-345999	-208853.08
-343127	-209122.64
-363514	-209500.2
-383596	-209972.84
-374332	-210509.52
-345122	-211074.4
-342267	-211621.2
-362732	-212107.0
-383141	-212497.03
-373349	-212773.61
-345419	-212943.36
-344215	-213021.05
-365062	-213023.3
-382033	-212958.19
-367750	-212821.42
-341951	-212599.6
-346786	-212262.97
-375551	-211776.58
-383881	-211114.11
-362178	-210269.14
-339077	-209270.64
-348157	-208179.81
-376264	-207089.39
-384968	-206113.36
-364082	-205367.98
-338089	-204956.06
-345549	-204936.75
-373561	-205315.62
-383981	-206040.31
-363936	-207005.39
-343921	-208073.19
-350309	-209089.42
-370696	-209917.22
-387531	-210455.78
-394037	-210658.72
-353884	-210563.22
-346197	-210256.89
-366924	-209871.34
-388070	-209552.16
-379362	-209435.78
-349674	-209631.75
-346296	-210193.03
-366474	-211105.89
-389544	-212295.02
-380142	-213644.78
-349946	-215027.1
-345240	-216313.97
-365214	-217397.83
-390166	-218206.62
-382477	-218716.61
-349592	-218957.22
-343739	-218984.8
-363766	-218867.36
-388351	-218667.83
-380496	-218439.3
-348787	-218223.78
-343162	-218037.98
-362854	-217876.23
-388054	-217716.8
-379616	-217538.86
-348234	-217336.39
-342737	-217105.88
-361742	-216844.06
-386646	-216543.69
-377559	-216196.08
-346656	-215794.22
-340595	-215319.77
-359795	-214745.47
-383568	-214044.92
-375137	-213211.42
-345306	-212276.66
-339546	-211302.77
-358751	-210381.64
-383668	-209624.14
-375087	-209152.7
-345612	-209086.17
-339864	-209502.42
-358578	-210417.98
-383247	-211774.72
-374385	-213448.89
-347287	-215270.19
-344771	-217034.89
-363557	-218534.7
-389325	-219587.4
-396902	-220068.16
-355554	-219950.77
-341690	-219281.84
-360076	-218179.08
-386817	-216804.92
-379846	-215343.39
-348696	-213978.9
-341114	-212854.42
-359307	-212052.44
-386677	-211586.52
-380038	-211416.0
-348400	-211469.22
-339628	-211651.62
-365171	-211863.34
-387930	-212022.78
-379452	-212079.48
-347821	-212026.92
-340167	-211883.86
-358817	-211681.55
-386639	-211450.69
-380098	-211216.27
-348359	-211004.55
-341074	-210825.89
-359771	-210677.02
-387607	-210546.5
-380970	-210432.06
-350096	-210350.62
-341238	-210323.72
-359839	-210372.66
-388524	-210508.34
-382448	-210732.83
-349793	-211031.95
-341144	-211362.28
-358952	-211662.28
-387387	-211858.75
-381437	-211892.28
-348758	-211734.19
-341105	-211391.16
-360102	-210916.77
-390063	-210401.97
-383569	-209971.28
-349904	-209760.03
-341022	-209879.84
-359841	-210396.86
-390352	-211310.84
-383396	-212557.28
-351355	-214013.75
-344277	-215512.45
-362384	-216872.5
-388010	-217928.02
-404953	-218558.9
-360676	-218729.56
-340610	-218467.02
-358962	-217868.86
-389721	-217072.95
-383476	-216237.6
-349416	-215512.72
-340224	-215006.12
-359011	-214766.73
-390599	-214775.81
-384386	-214968.69
-350776	-215256.12
-343036	-215538.36
-359111	-215728.31
-389655	-215764.84
-384225	-215631.86
-349548	-215362.16
-339959	-215013.83
-357936	-214652.84
-388458	-214330.3
-382417	-214079.3
-348158	-213912.02
-338422	-213809.55
-355426	-213731.47
-393074	-213623.02
-383976	-213444.2
-348228	-213181.53
-338508	-212843.55
-356762	-212458.62
-388670	-212059.34
-382598	-211681.7
-348224	-211355.4
-338110	-211086.31
-356137	-210855.8
-388683	-210620.88
-383101	-210339.72
-348621	-209990.52
-339418	-209578.53
-356661	-209143.56
-389442	-208754.0
-382851	-208509.2
-348275	-208520.11
-338581	-208874.39
-356679	-209614.52
-390771	-210715.69
-384986	-212093.19
-352484	-213606.6
-343396	-215073.6
-354929	-216308.94
-388519	-217145.33
-409847	-217473.72
-361043	-217280.08
-339433	-216618.03
-356630	-215621.38
-391265	-214464.44
-384819	-213338.77
-349467	-212414.44
-339257	-211804.89
-356895	-211556.44
-391529	-211635.94
-384840	-211955.3
-350137	-212390.81
-339250	-212807.38
-357150	-213096.52
-390988	-213188.48
-384421	-213075.47
-348937	-212801.88
-339462	-212446.69
-357352	-212107.78
-391191	-211867.42
-383661	-211784.5
-349051	-211877.02
-340467	-212117.56
-358043	-212449.86
-391042	-212797.1
-382609	-213092.42
-348487	-213289.11
-339577	-213368.62
-356300	-213347.14
-388012	-213259.67
-379632	-213156.33
-348312	-213082.0
-341004	-213061.4
-357037	-213097.1
-385364	-213162.72
-368166	-213222.64
-342192	-213242.56
-347550	-213202.98
-370566	-213115.38
-385865	-213019.95
-364344	-212985.5
-340168	-213090.8
-347002	-213405.0
-372052	-213969.95
-388639	-214778.2
-366014	-215770.95
-339602	-216839.52
-349507	-217840.6
-379246	-218626.19
-390447	-219071.06
-384631	-219097.75
-347432	-218700.45
-346842	-217929.38
-370541	-216907.16
-385795	-215791.88
-362823	-214751.1
-339567	-213921.53
-347317	-213387.9
-371861	-213177.73
-385289	-213252.97
-364174	-213525.9
-343143	-213872.75
-352984	-214167.16
-376864	-214315.61
-384542	-214269.48
-360620	-214032.55
-343340	-213646.86
-357676	-213184.69
-382381	-212736.7
-382142	-212384.78
-353418	-212179.7
-337961	-212123.75
-357309	-212181.28
-384020	-212300.44
-375788	-212425.52
-347372	-212506.0
-334516	-212504.55
-355067	-212413.23
-382579	-212261.61
-371402	-212102.98
-344624	-211987.61
-333500	-211944.53
-355410	-211976.45
-381896	-212068.58
-376312	-212186.44
-350726	-212281.97
-339717	-212304.28
-358499	-212226.98
-383780	-212067.83
-383291	-211886.62
-358525	-211772.44
-343295	-211817.92
-357886	-212106.1
-381189	-212693.69
-386199	-213585.56
-360274	-214726.89
-345504	-215995.62
-358447	-217231.4
-385501	-218268.16
-384428	-218962.61
-375456	-219214.39
-347476	-218991.6
-353229	-218325.61
-377752	-217328.5
-382762	-216159.2
-359051	-214991.34
-341752	-213973.94
-352632	-213213.56
-375051	-212767.08
-385289	-212629.19
-363167	-212743.77
-342742	-213012.02
-353519	-213324.81
-374408	-213595.6
-382692	-213770.75
-360070	-213833.36
-341284	-213797.03
-352178	-213697.75
-375624	-213587.31
-385952	-213508.48
-361694	-213483.88
-343217	-213499.53
-354072	-213516.88
-376412	-213493.45
-382494	-213389.5
-359831	-213181.12
-341624	-212860.94
-352681	-212448.12
-375070	-211992.81
-383532	-211555.84
-360224	-211195.48
-341706	-210940.12
-353046	-210791.53
-375164	-210731.67
-382651	-210723.42
-359567	-210724.4
-341166	-210693.19
-352081	-210612.61
-373195	-210509.23
-380714	-210443.02
-358333	-210496.97
-340550	-210747.23
-351826	-211249.8
-373002	-212028.8
-381504	-213053.4
-359812	-214236.3
-343597	-215431.84
-358176	-216469.67
-381597	-217193.11
-387336	-217483.06
-372611	-217280.17
-345440	-216601.52
-353282	-215527.94
-373967	-214220.8
-383449	-212878.44
-360559	-211700.48
-341198	-210844.05
-357560	-210405.69
-374424	-210420.25
-383557	-210846.2
-361030	-211581.72
-341658	-212476.3
-351043	-213368.58
-370841	-214123.48
-381230	-214641.69
-359809	-214875.27
-341342	-214812.58
-351377	-214480.66
-369553	-213939.88
-390327	-213253.97
-362896	-212487.38
-341594	-211677.97
-350891	-210848.58
-370827	-210022.36
-383051	-209220.14
-361096	-208473.78
-342149	-207812.95
-351151	-207281.66
-370877	-206937.19
-382896	-206830.8
-360551	-206998.61
-341491	-207438.1
-351161	-208115.05
-369939	-208974.95
-382754	-209941.72
-360148	-210934.66
-340792	-211871.28
-349756	-212692.44
-369730	-213380.19
-382985	-213947.53
-360291	-214437.2
-340879	-214893.4
-349531	-215356.83
-369817	-215858.47
-384017	-216399.84
-361019	-216953.53
-342829	-217453.06
-356173	-217818.23
-378966	-217980.23
-387956	-217889.8
-373027	-217532.89
-344649	-216929.1
-350397	-216122.89
-369794	-215206.05
-383309	-214282.89
-360629	-213453.28
-341584	-212784.83
-349590	-212314.48
-368933	-212054.05
-382442	-211982.98
-360119	-212061.38
-340311	-212227.67
-349234	-212423.31
-369129	-212610.1
-382583	-212766.05
-359732	-212887.78
-340390	-212971.67
-349572	-213019.69
-370192	-213042.8
-382521	-213044.61
-360871	-213027.11
-341459	-212976.66
-350085	-212882.83
-369794	-212750.88
-383680	-212594.31
-362063	-212440.03
-341982	-212309.12
-350801	-212222.33
-370992	-212197.75
-385418	-212235.89
-366825	-212318.88
-343550	-212401.1
-350476	-212426.16
-370080	-212346.28
-384535	-212128.44
-361912	-211771.89
-341535	-211300.23
-349529	-210776.5
-369192	-210296.6
-383362	-209964.78
-361697	-209881.27
-341566	-210112.05
-349965	-210680.42
-369640	-211559.86
-383595	-212667.44
-361179	-213884.12
-342955	-215062.2
-355132	-216059.47
-377095	-216764.6
-390091	-217106.03
-375297	-217065.6
-345616	-216682.58
-349944	-216030.2
-370154	-215218.23
-385225	-214356.89
-363633	-213544.92
-341907	-212848.33
-349046	-212301.12
-368556	-211908.53
-384697	-211647.95
-362633	-211488.56
-341992	-211396.12
-348582	-211347.36
-367568	-211335.81
-382597	-211363.05
-361029	-211440.11
-341377	-211572.33
-350942	-211756.2
-371164	-211974.73
-385969	-212191.78
-363169	-212366.81
-342267	-212458.36
-351302	-212437.92
-373326	-212297.25
-388461	-212048.72
-363784	-211732.5
-343426	-211406.22
-354390	-211129.95
-376389	-210952.25
-390291	-210893.4
-363744	-210946.31
-343636	-211075.03
-355714	-211219.12
-378531	-211309.81
-388754	-211284.44
-361932	-211112.3
-342379	-210802.77
-355043	-210407.34
-377618	-210015.02
-387999	-209732.69
-362053	-209670.14
-342494	-209910.6
-353691	-210491.81
-374164	-211393.11
-386481	-212530.03
-361736	-213772.23
-343455	-214956.05
-357249	-215917.69
-379034	-216520.45
-390179	-216675.75
-371079	-216361.55
-341406	-215630.03
-349067	-214582.52
-370072	-213367.88
-382074	-212145.11
-358221	-211060.69
-342266	-210221.17
-347866	-209685.23
-357973	-209458.3
-375024	-209490.17
-363982	-209700.44
-346354	-209994.55
-345574	-210285.84
-355841	-210512.45
-374891	-210635.44
-365449	-210654.14
-348366	-210594.25
-346679	-210502.31
-357204	-210430.38
-377222	-210415.36
-366954	-210484.1
-348476	-210642.95
-347139	-210885.73
-357187	-211193.97
-377738	-211535.31
-366891	-211882.75
-347942	-212212.84
-346558	-212509.5
-357004	-212760.77
-376451	-212948.19
-365877	-213055.97
-347173	-213064.86
-346048	-212958.95
-356554	-212727.94
-375976	-212365.73
-363357	-211890.28
-345129	-211341.36
-348132	-210784.5
-360614	-210303.94
-377561	-209985.19
-364491	-209909.5
-346204	-210133.36
-350356	-210677.02
-365419	-211516.05
-381939	-212573.48
-362361	-213738.28
-344006	-214872.56
-354146	-215835.94
-370704	-216510.08
-388686	-216808.12
-374648	-216699.48
-345196	-216211.38
-350953	-215414.98
-368796	-214423.69
-383887	-213361.92
-362926	-212353.84
-342531	-211495.84
-350202	-210850.52
-368651	-210442.64
-385666	-210252.2
-364139	-210241.05
-342758	-210352.47
-350025	-210531.61
-369572	-210737.67
-387367	-210943.9
-365778	-211149.73
-341757	-211365.7
-348667	-211610.03
-368362	-211901.6
-387994	-212245.12
-364705	-212642.48
-340986	-213073.81
-347001	-213517.06
-366527	-213948.62
-386837	-214344.66
-364324	-214697.8
-341010	-215005.78
-347409	-215275.75
-367602	-215519.05
-388356	-215737.86
-364606	-215932.69
-339772	-216086.69
-345572	-216172.69
-367051	-216160.89
-387814	-216021.73
-364932	-215749.03
-339837	-215354.98
-345152	-214880.75
-365915	-214394.08
-388556	-213973.75
-364956	-213707.42
-339955	-213660.33
-345017	-213866.27
-366014	-214314.67
-388938	-214940.95
-366395	-215645.67
-342638	-216294.56
-348172	-216748.8
-364263	-216889.5
-393881	-216628.14
-378178	-215941.4
-342835	-214869.67
-343475	-213504.19
-364144	-211983.67
-387204	-210459.92
-364091	-209086.84
-338343	-207982.83
-342020	-207221.66
-362454	-206824.03
-385492	-206754.19
-363519	-206945.45
-338147	-207303.27
-341351	-207732.55
-365448	-208153.77
-387989	-208509.83
-365399	-208783.22
-339145	-208977.89
-343352	-209118.27
-365282	-209235.45
-391752	-209349.34
-368294	-209474.58
-341250	-209603.53
-344501	-209715.19
-365582	-209781.53
-390272	-209771.12
-374369	-209671.19
-342906	-209484.73
-345011	-209231.73
-366542	-208948.94
-392499	-208674.34
-368782	-208453.69
-341256	-208315.47
-344852	-208270.89
-366232	-208315.8
-393387	-208426.12
-369882	-208580.98
-342457	-208756.94
-345570	-208944.9
-368146	-209153.2
-395644	-209402.8
-371946	-209735.61
-343824	-210188.38
-346082	-210787.66
-367651	-211536.14
-396357	-212400.33
-371429	-213324.69
-344266	-214221.7
-346915	-214993.33
-363029	-215548.6
-395764	-215810.11
-383079	-215748.45
-346164	-215382.42
-341981	-214770.78
-363876	-214013.78
-392476	-213224.56
-368356	-212525.0
-340202	-212009.42
-341756	-211735.88
-363251	-211717.53
-391838	-211916.27
-368768	-212267.4
-340420	-212679.1
-341979	-213058.78
-363636	-213330.1
-393036	-213438.84
-368945	-213377.16
-340664	-213163.31
-341986	-212843.73
-364412	-212478.1
-393945	-212119.39
-369462	-211820.2
-340966	-211606.81
-341931	-211486.16
-364546	-211446.03
-394569	-211457.11
-369587	-211496.83
-340482	-211540.31
-341543	-211573.47
-363670	-211591.78
-392797	-211590.52
-367997	-211578.78
-339409	-211556.4
-340572	-211521.02
-363035	-211463.48
-392514	-211365.92
-367847	-211224.31
-341179	-211039.64
-340822	-210831.53
-361733	-210636.11
-389306	-210496.45
-366173	-210471.92
-338363	-210611.2
-339829	-210946.36
-362747	-211477.61
-393658	-212161.83
-369539	-212930.58
-342579	-213681.25
-341667	-214301.45
-355910	-214686.22
-396517	-214743.72
-388478	-214437.11
-348097	-213783.95
-341866	-212848.47
-364957	-211738.94
-396484	-210581.06
-371662	-209513.42
-341199	-208649.72
-341577	-208069.19
-365261	-207801.23
-396998	-207823.73
-372411	-208089.56
-343883	-208519.34
-344432	-209026.25
-366848	-209536.44
-398751	-209995.6
-373236	-210392.75
-343793	-210733.94
-344257	-211042.94
-367842	-211350.58
-399947	-211677.89
-374702	-212043.14
-344704	-212433.97
-344193	-212818.39
-367025	-213154.55
-398649	-213396.48
-374403	-213523.75
-344129	-213526.19
-342555	-213418.17
-365153	-213237.4
-397833	-213032.62
-373191	-212869.03
-343459	-212793.6
-341864	-212833.44
-364109	-212991.12
-395809	-213241.69
-372391	-213553.98
-342169	-213880.16
-340681	-214176.16
-362842	-214412.34
-393612	-214575.77
-370540	-214686.17
-341489	-214771.72
-340095	-214865.38
-361713	-214995.39
-392571	-215168.66
-368886	-215381.02
-338717	-215597.31
-342271	-215764.55
-357096	-215825.53
-396852	-215717.88
-387765	-215411.86
-347567	-214906.36
-339490	-214229.48
-361620	-213440.95
-392892	-212614.34
-370765	-211840.25
-342592	-211193.86
-341380	-210730.31
-363696	-210474.67
-394582	-210414.27
-371367	-210520.27
-343336	-210738.6
-341908	-211011.66
-363671	-211287.69
-395824	-211522.5
-372716	-211702.77
-343892	-211825.2
-341787	-211902.02
-363634	-211950.67
-395452	-211979.42
-373274	-211999.27
-344183	-212004.38
-341724	-211984.08
-362932	-211924.83
-394957	-211810.64
-373534	-211645.86
-344852	-211439.81
-341267	-211216.66
-362279	-211006.22
-394129	-210830.34
-372382	-210712.3
-344174	-210649.95
-340445	-210627.19
-361815	-210611.14
-393574	-210554.64
-372036	-210424.69
-343783	-210197.06
-340344	-209878.08
-360961	-209505.38
-391161	-209139.5
-371695	-208870.48
-344416	-208783.42
-340711	-208953.53
-361760	-209422.55
-394483	-210180.34
-370037	-211179.36
-346583	-212316.61
-345864	-213466.08
-356921	-214496.23
-399828	-215277.31
-392512	-215731.83
-352833	-215829.11
-343417	-215593.75
-364488	-215105.7
-396342	-214473.77
-376562	-213830.45
-347415	-213291.81
-341194	-212949.3
-367943	-212849.75
-396827	-212989.81
-376049	-213333.81
-347451	-213808.12
-342993	-214331.77
-364045	-214828.38
-396421	-215235.06
-376032	-215525.0
-346859	-215691.36
-341473	-215754.03
-361751	-215744.6
-392024	-215688.88
-373577	-215614.14
-346002	-215525.77
-340752	-215421.17
-360920	-215289.22
-391882	-215111.56
-372974	-214886.03
-344900	-214614.94
-339390	-214316.39
-359018	-214020.73
-389668	-213753.66
-372261	-213542.02
-344956	-213389.0
-339346	-213282.72
-359254	-213191.73
-388916	-213065.5
-371781	-212861.17
-344652	-212539.72
-340064	-212092.77
-359546	-211544.88
-389613	-210947.95
-372222	-210388.28
-344738	-209955.53
-339853	-209737.98
-359476	-209797.39
-389239	-210148.19
-371734	-210764.4
-346413	-211563.86
-342098	-212436.45
-359732	-213257.12
-400089	-213898.3
-387164	-214277.3
-349806	-214349.36
-341392	-214123.6
-360926	-213664.47
-392457	-213067.05
-375490	-212451.34
-348217	-211922.73
-342996	-211567.17
-362132	-211431.02
-394349	-211509.23
-377096	-211767.05
-349330	-212131.83
-342511	-212527.16
-361456	-212881.83
-392147	-213139.94
-375669	-213282.48
-347847	-213310.14
-341153	-213252.9
-359719	-213152.2
-396621	-213041.33
-374698	-212954.62
-346649	-212899.16
-340422	-212871.31
-358897	-212855.08
-389729	-212823.98
-374252	-212763.92
-347570	-212662.78
-340677	-212529.03
-359784	-212382.44
-390804	-212241.58
-374454	-212130.48
-352142	-212052.2
-343086	-212003.56
-360597	-211964.55
-392142	-211899.2
-376656	-211780.86
-349047	-211586.27
-341867	-211322.17
-360139	-211022.53
-391552	-210742.55
-376241	-210565.73
-348719	-210571.08
-341402	-210829.92
-360330	-211381.69
-392558	-212216.36
-375944	-213284.28
-350693	-214482.84
-344182	-215688.16
-361451	-216767.2
-403036	-217593.33
-389816	-218090.8
-351339	-218224.48
-340517	-218014.27
-358900	-217536.06
-390746	-216893.16
-375843	-216208.25
-348920	-215584.3
-339374	-215103.2
-356751	-214804.78
-386940	-214678.8
-372730	-214684.25
-346495	-214748.27
-338949	-214798.94
-356581	-214774.72
-386687	-214631.95
-372657	-214364.77
-345955	-213986.97
-338611	-213540.86
-357224	-213076.8
-387661	-212636.34
-372830	-212255.25
-346234	-211940.78
-338731	-211690.22
-357366	-211487.05
-388529	-211304.77
-374477	-211128.66
-347759	-210945.97
-339356	-210764.19
-357541	-210601.62
-388989	-210474.78
-375674	-210404.33
-347597	-210391.02
-339191	-210427.73
-357469	-210491.28
-389132	-210543.86
-374781	-210555.6
-348052	-210498.23
-339448	-210371.14
-357433	-210199.23
-389312	-210026.88
-374984	-209923.22
-348784	-209953.58
-340392	-210179.4
-358470	-210635.47
-389772	-211314.83
-375661	-212178.4
-351024	-213142.02
-343231	-214105.52
-360867	-214963.3
-402602	-215611.72
-389937	-215993.38
-352244	-216082.38
-339972	-215898.69
-358126	-215507.27
-390940	-214993.84
-376513	-214460.27
-349064	-213990.56
-339638	-213651.67
-357542	-213477.12
-389814	-213458.42
-375650	-213565.19
-348452	-213737.81
-339154	-213917.02
-357478	-214047.38
-389754	-214083.69
-375104	-214010.92
-348656	-213824.83
-339446	-213547.02
-356847	-213209.42
-388653	-212843.06
-374677	-212485.33
-348217	-212160.62
-338475	-211894.8
-356499	-211708.4
-388833	-211613.39
-374887	-211627.42
-348292	-211754.84
-337809	-212000.12
-356001	-212355.05
-389864	-212791.25
-375274	-213271.97
-348804	-213735.89
-338049	-214121.67
-356219	-214368.28
-389166	-214425.42
-375817	-214278.56
-349418	-213940.47
-337962	-213470.81
-355749	-212961.89
-388268	-212521.69
-375991	-212267.92
-350194	-212290.02
-337784	-212644.05
-354611	-213330.19
-387597	-214284.08
-374609	-215396.95
-350800	-216511.88
-340658	-217470.56
-357808	-218125.02
-398621	-218359.83
-387692	-218134.03
-351757	-217461.44
-337387	-216420.33
-355939	-215140.81
-388821	-213772.83
-374906	-212470.61
-348739	-211352.56
-336898	-210501.23
-354435	-209946.0
-387354	-209663.88
-375461	-209598.95
-349461	-209669.14
-337089	-209798.3
-354279	-209923.45
-387962	-210003.25
-376063	-210032.28
-350904	-210021.06
-336947	-210002.55
-354099	-210010.83
-388013	-210066.67
-376578	-210183.7
-351087	-210349.53
-337379	-210545.94
-354680	-210746.42
-388602	-210922.31
-377029	-211063.88
-350975	-211165.78
-337907	-211243.19
-355307	-211316.31
-388585	-211400.3
-376789	-211509.19
-350856	-211633.61
-337571	-211755.44
-355102	-211843.62
-389624	-211861.31
-376764	-211790.39
-350799	-211625.67
-337846	-211397.83
-355993	-211164.94
-389762	-211003.17
-377471	-211005.22
-350964	-211244.6
-337983	-211771.1
-355642	-212587.62
-387902	-213640.02
-374860	-214831.86
-351566	-216020.84
-340789	-217056.66
-358872	-217798.25
-397341	-218135.77
-387341	-218026.5
-352893	-217483.58
-338092	-216587.03
-355707	-215467.88
-388292	-214277.08
-374926	-213170.73
-350021	-212267.86
-337907	-211647.78
-355265	-211332.78
-387310	-211287.2
-376025	-211441.98
-351108	-211697.3
-337914	-211959.62
-353306	-212153.02
-394784	-212226.02
-376352	-212175.9
-350090	-212019.23
-337698	-211800.8
-355146	-211570.83
-387565	-211368.98
-374324	-211227.05
-349522	-211145.22
-336822	-211115.92
-354396	-211119.03
-387326	-211129.06
-375249	-211137.22
-366870	-211134.14
-340434	-211139.53
-355024	-211172.84
-386844	-211249.98
-374270	-211383.8
-350066	-211560.11
-337747	-211752.42
-355572	-211914.81
-387879	-211995.3
-375124	-211957.58
-350845	-211778.4
-338537	-211474.92
-356627	-211098.38
-390016	-210727.67
-375541	-210467.47
-351211	-210408.81
-337062	-210625.33
-353680	-211144.5
-386290	-211935.02
-373977	-212917.66
-352166	-213958.23
-341024	-214907.05
-359820	-215616.12
-395307	-215965.06
-386102	-215897.08
-352848	-215412.31
-337851	-214581.42
-357101	-213529.3
-390086	-212406.56
-375538	-211371.8
-351299	-210547.06
-338071	-210014.08
-357541	-209794.31
-391174	-209851.31
-377991	-210113.36
-354827	-210476.62
-341921	-210845.02
-360788	-211141.48
-393086	-211321.19
-379669	-211385.9
-355263	-211360.73
-341482	-211296.88
-359822	-211245.72
-393800	-211243.31
-380729	-211310.25
-356020	-211431.94
-341770	-211579.9
-358084	-211714.5
-387129	-211797.28
-375884	-211813.25
-350952	-211762.17
-337171	-211673.72
-354114	-211591.72
-382919	-211560.14
-370356	-211616.84
-347837	-211766.03
-335000	-211987.83
-350970	-212234.1
-378448	-212437.56
-368177	-212537.95
-347898	-212485.6
-339433	-212274.17
-355300	-211941.72
-383666	-211565.27
-372342	-211255.44
-351388	-211118.75
-338842	-211247.52
-356939	-211685.89
-387223	-212414.12
-373417	-213354.95
-352706	-214366.58
-339674	-215285.39
-354930	-215948.67
-391892	-216225.06
-389067	-216055.17
-359841	-215450.22
-338258	-214505.83
-355736	-213377.64
-388690	-212248.38
-378026	-211300.28
-356209	-210663.78
-338472	-210410.44
-355664	-210528.98
-387950	-210932.2
-378096	-211487.33
-358543	-212031.6
-341569	-212426.1
-356976	-212575.52
-387387	-212447.45
-378869	-212085.69
-359541	-211582.16
-341059	-211072.08
-356871	-210687.69
-386541	-210530.36
-378337	-210653.89
-358478	-211039.88
-340409	-211619.36
-356395	-212278.23
-388576	-212885.45
-379371	-213330.75
-358415	-213533.28
-340094	-213473.9
-355264	-213184.83
-385968	-212739.66
-377349	-212240.39
-357894	-211777.77
-340482	-211427.48
-356124	-211223.23
-385731	-211154.77
-377294	-211182.77
-357784	-211241.11
-340784	-211276.03
-357138	-211252.39
-386876	-211168.88
-378547	-211066.5
-358584	-211004.83
-341877	-211061.88
-357907	-211300.56
-388897	-211749.83
-378887	-212398.4
-359682	-213176.31
-338109	-213984.02
-356337	-214696.17
-395389	-215192.02
-395454	-215390.38
-365027	-215255.67
-340142	-214821.05
-354877	-214176.17
-385254	-213450.02
-378264	-212791.62
-358309	-212328.14
-338715	-212157.81
-352867	-212318.64
-383883	-212786.1
-377653	-213486.72
-358506	-214303.4
-337722	-215116.61
-352176	-215814.83
-382979	-216318.2
-377059	-216593.88
-358065	-216641.7
-337607	-216501.88
-352050	-216225.14
-383554	-215858.05
-378849	-215433.9
-359641	-214952.64
-338667	-214399.45
-353334	-213741.83
-385437	-212947.83
-380642	-212008.08
-361409	-210934.44
-339352	-209783.19
-353588	-208636.4
-386559	-207592.17
-381340	-206753.77
-362184	-206194.42
-339204	-205960.0
-352989	-206045.94
-386044	-206401.69
-381780	-206948.81
-362084	-207584.55
-338094	-208222.94
-351922	-208796.98
-384359	-209276.23
-380817	-209675.08
-361692	-210033.05
-337826	-210416.78
-351179	-210885.52
-384833	-211475.5
-380696	-212191.69
-362064	-212991.31
-339016	-213805.98
-353771	-214541.0
-393660	-215098.17
-397760	-215406.95
-369670	-215429.8
-338947	-215183.61
-353101	-214728.27
-386048	-214155.92
-383407	-213579.05
-364524	-213096.36
-339599	-212790.64
-354966	-212698.88
-390617	-212811.73
-385303	-213086.73
-363401	-213447.2
-338738	-213815.98
-353577	-214120.6
-388579	-214310.47
-384657	-214374.0
-365377	-214317.78
-340777	-214186.03
-355261	-214025.33
-389362	-213877.12
-385797	-213772.95
-366437	-213714.81
-341716	-213693.84
-355862	-213680.28
-389286	-213640.38
-385827	-213552.02
-366369	-213402.06
-340911	-213208.94
-355426	-212996.47
-389688	-212805.06
-385518	-212677.56
-364807	-212635.28
-339137	-212689.27
-353751	-212820.33
-388506	-212989.33
-382711	-213154.53
-361626	-213269.88
-336882	-213316.88
-350924	-213297.61
-382720	-213243.14
-378390	-213213.6
-358317	-213272.25
-334687	-213487.98
-348999	-213899.02
-380678	-214505.95
-371364	-215271.1
-357934	-216102.58
-336578	-216891.53
-349789	-217512.88
-386256	-217852.88
-390564	-217836.61
-362420	-217436.6
-333486	-216686.66
-347267	-215669.53
-380181	-214501.86
-377987	-213319.5
-359599	-212241.77
-336071	-211370.75
-351234	-210758.66
-383541	-210411.48
-381829	-210297.22
-362766	-210348.42
-336117	-210497.14
-349257	-210674.23
-382610	-210830.34
-382579	-210945.33
-364214	-211019.27
-336649	-211082.11
-348503	-211165.27
-381431	-211295.73
-391851	-211489.03
-372042	-211740.38
-337945	-212039.64
-346620	-212357.88
-379262	-212661.95
-388091	-212927.03
-374988	-213135.8
-337748	-213297.08
-344312	-213420.55
-377094	-213519.05
-388712	-213601.27
-375094	-213663.17
-343672	-213697.2
-344765	-213678.8
-376568	-213574.9
-390205	-213360.39
-377992	-213025.86
-338311	-212601.58
-343841	-212137.58
-376665	-211706.75
-389983	-211399.42
-375587	-211301.48
-338944	-211489.53
-345412	-211993.12
-378201	-212791.73
-390867	-213816.92
-382619	-214953.66
-343676	-216078.94
-349294	-217055.39
-383777	-217764.69
-399988	-218132.34
-378745	-218134.84
-339517	-217811.2
-347252	-217241.45
-380313	-216535.2
-389631	-215811.88
-373901	-215173.88
-338569	-214706.72
-346115	-214447.95
-377708	-214395.58
-386892	-214516.11
-371162	-214750.23
-337019	-215045.44
-345452	-215346.84
-377431	-215616.28
-386226	-215837.55
-369617	-216008.73
-337039	-216149.0
-345416	-216271.97
-377828	-216388.23
-384778	-216501.06
-367859	-216600.33
-336666	-216679.38
-346355	-216722.0
-378583	-216717.55
-385134	-216665.88
-367910	-216570.3
-337077	-216450.03
-347247	-216315.25
-379561	-216169.78
-387023	-216005.05
-371617	-215793.9
-337416	-215506.88
-346930	-215100.42
-379141	-214538.61
-386551	-213805.64
-367409	-212910.02
-336474	-211902.47
-345871	-210855.72
-376877	-209865.4
-384872	-209033.94
-366189	-208448.44
-335730	-208176.12
-348391	-208233.38
-377327	-208591.81
-384356	-209180.64
-372225	-209891.48
-338109	-210616.52
-346783	-211243.38
-378382	-211688.11
-391341	-211903.8
-366849	-211886.11
-333134	-211675.69
-343225	-211339.56
-374176	-210959.9
-382405	-210616.05
-365479	-210367.31
-334677	-210257.19
-343860	-210293.83
-375121	-210463.06
-384581	-210736.19
-367529	-211074.97
-337372	-211452.44
-346716	-211842.61
-377962	-212231.66
-386573	-212614.25
-368709	-212985.02
-339008	-213343.9
-350094	-213677.53
-381574	-213967.64
-389754	-214193.72
-370361	-214334.31
-339689	-214383.77
-350478	-214344.27
-383201	-214237.38
-391782	-214100.7
-371420	-213977.45
-339677	-213917.38
-348769	-213949.98
-381926	-214085.1
-391192	-214307.05
-370221	-214571.64
-338851	-214825.73
-347514	-215004.27
-378757	-215056.6
-387239	-214958.73
-368171	-214719.12
-338466	-214391.69
-347398	-214055.92
-378048	-213811.22
-386494	-213755.69
-367296	-213961.2
-338039	-214466.88
-346545	-215253.16
-377526	-216251.55
-387558	-217349.67
-373093	-218404.44
-339846	-219280.25
-350817	-219852.6
-383486	-220041.72
-397717	-219821.6
-371151	-219221.53
-338107	-218323.9
-346840	-217242.19
-378029	-216106.95
-387157	-215039.1
-367166	-214130.56
-338172	-213442.17
-346784	-212986.08
-376731	-212740.22
-385481	-212653.94
-365891	-212658.72
-336912	-212693.64
-345752	-212703.83
-375493	-212656.23
-384657	-212539.66
-364796	-212359.52
-336543	-212143.48
-344614	-211920.88
-374842	-211725.56
-384121	-211586.45
-363624	-211521.88
-335311	-211548.39
-344002	-211666.7
-373586	-211872.66
-383061	-212153.33
-363722	-212484.95
-335917	-212843.23
-344855	-213190.42
-374771	-213487.61
-383654	-213694.16
-364366	-213769.92
-336238	-213693.34
-344636	-213454.52
-374965	-213069.19
-385908	-212577.2
-366120	-212037.23
-336954	-211530.5
-344907	-211134.56
-375293	-210918.77
-387264	-210927.28
-368562	-211166.66
-337583	-211611.92
-344893	-212192.48
-374869	-212812.6
-387024	-213362.11
-371082	-213732.97
-338695	-213853.22
-349492	-213676.8
-382097	-213208.86
-397092	-212502.45
-371139	-211647.69
-338962	-210760.08
-346891	-209956.78
-375918	-209341.22
-387970	-208983.61
-368619	-208909.92
-339195	-209112.03
-346670	-209538.92
-377566	-210120.02
-390118	-210776.36
-370138	-211435.72
-340207	-212052.06
-347441	-212598.27
-377825	-213075.98
-392239	-213503.7
-372462	-213907.31
-341161	-214316.47
-347499	-214742.11
-377661	-215182.14
-390102	-215615.97
-370231	-216009.45
-340445	-216326.7
-346619	-216533.48
-376312	-216613.44
-389930	-216566.6
-369022	-216409.03
-339777	-216172.39
-346842	-215886.9
-375429	-215586.95
-388644	-215293.27
-368235	-215009.19
-338616	-214725.89
-344432	-214420.3
-373883	-214074.73
-387318	-213682.75
-368316	-213254.2
-338536	-212823.2
-344386	-212438.3
-373512	-212170.67
-387222	-212088.06
-367086	-212242.11
-337977	-212656.31
-343498	-213310.02
-371701	-214148.58
-386049	-215078.25
-368718	-215980.56
-337550	-216735.67
-347649	-217230.62
-379100	-217396.92
-395307	-217210.42
-369769	-216697.62
-338526	-215929.23
-343169	-215005.7
-371741	-214047.88
-385170	-213164.97
-366063	-212439.75
-338226	-211920.0
-343173	-211606.75
-371338	-211470.47
-384562	-211452.78
-365257	-211482.38
-337617	-211495.45
-343731	-211440.3
-372236	-211297.16
-385421	-211070.16
-365637	-210783.77
-338187	-210476.6
-343645	-210184.47
-371897	-209940.45
-385385	-209761.05
-366865	-209645.17
-339744	-209582.8
-344603	-209553.16
-372694	-209542.25
-386872	-209542.05
-374677	-209552.88
-341029	-209592.17
-344869	-209675.81
-372393	-209822.67
-388037	-210038.94
-369304	-210315.02
-341247	-210627.56
-345579	-210935.47
-373050	-211199.72
-389030	-211383.47
-370210	-211466.9
-341114	-211458.86
-352804	-211389.83
-376339	-211322.22
-390700	-211326.38
-371941	-211470.83
-342784	-211807.6
-346721	-212352.03
-374370	-213082.81
-391342	-213933.17
-374516	-214805.53
-343469	-215590.55
-350932	-216175.2
-378071	-216481.05
-400159	-216467.12
-378451	-216147.19
-342597	-215585.25
-344541	-214882.66
-372099	-214165.7
-391179	-213554.05
-372872	-213145.06
-342121	-212997.88
-344619	-213119.28
-371562	-213472.05
-390937	-213979.11
-372562	-214544.31
-342397	-215073.44
-345175	-215485.89
-371278	-215735.56
-390232	-215808.23
-370979	-215723.17
-340853	-215525.19
-343521	-215264.47
-370479	-214992.19
-388747	-214741.34
-369714	-214526.81
-339658	-214346.78
-342786	-214183.23
-369302	-214017.3
-388082	-213831.66
-368826	-213620.27
-338831	-213392.9
-341572	-213166.2
-367954	-212964.78
-386284	-212804.38
-366878	-212689.23
-337796	-212608.92
-341270	-212535.08
-367286	-212434.97
-385561	-212273.69
-367416	-212030.47
-339447	-211709.31
-342406	-211339.22
-369066	-210978.62
-387133	-210699.0
-368293	-210574.06
-339059	-210662.94
-342153	-210989.3
-367878	-211538.31
-386475	-212245.86
-369822	-213012.36
-341596	-213719.02
-343541	-214243.83
-374462	-214493.11
-397005	-214412.44
-373674	-214003.9
-338611	-213323.83
-342711	-212469.44
-369111	-211566.9
-387891	-210738.19
-367780	-210083.83
-339347	-209665.45
-343724	-209492.62
-368826	-209533.39
-388144	-209716.89
-368931	-209959.14
-340756	-210183.03
-343261	-210332.22
-369741	-210389.02
-389222	-210368.81
-370594	-210318.69
-344196	-210299.92
-345225	-210370.92
-364539	-210572.72
-388192	-210909.55
-374995	-211353.61
-345121	-211852.0
-343132	-212335.11
-364173	-212737.62
-389242	-213007.62
-375570	-213126.62
-344449	-213113.81
-343083	-213016.9
-366637	-212903.95
-391975	-212840.88
-375229	-212881.33
-343105	-213054.38
-342429	-213351.97
-364776	-213738.12
-392822	-214151.9
-381349	-214530.28
-344853	-214828.02
-337726	-215022.77
-359466	-215127.28
-398176	-215176.05
-390030	-215230.5
-348692	-215359.92
-333697	-215615.92
-353387	-216019.6
-402619	-216541.3
-405725	-217118.81
-355334	-217671.19
-336327	-218097.95
-352513	-218312.4
-416054	-218240.56
-421590	-217865.75
-356367	-217232.78
-326175	-216424.98
-343585	-215552.33
-410049	-214717.05
-420726	-214018.52
-357689	-213536.23
-321962	-213296.78
-341574	-213276.19
-409223	-213398.52
-418884	-213576.97
-356567	-213734.8
-321825	-213805.22
-339721	-213747.45
-405205	-213542.36
-416231	-213214.47
-359312	-212821.97
-324314	-212426.42
-340626	-212077.58
-403781	-211791.98
-411334	-211572.11
-358881	-211406.39
-328768	-211264.22
-343971	-211108.5
-398087	-210899.64
-399177	-210625.95
-354868	-210305.3
-332125	-209973.4
-348061	-209676.38
-395208	-209448.88
-393593	-209321.97
-351639	-209310.4
-332760	-209402.16
-348442	-209563.5
-392751	-209738.7
-387893	-209880.66
-348779	-209962.23
-332851	-209977.97
-349320	-209952.67
-391897	-209925.69
-385396	-209958.19
-346857	-210113.34
-332506	-210434.92
-350829	-210934.86
-393666	-211576.8
-384749	-212295.81
-347760	-213001.23
-340727	-213588.69
-358553	-213968.34
-406035	-214066.2
-395867	-213862.22
-348542	-213387.73
-336056	-212716.44
-354796	-211954.27
-398822	-211209.75
-389693	-210591.08
-350284	-210182.4
-338392	-210025.12
-358254	-210117.61
-402214	-210409.08
-391741	-210829.66
-350942	-211299.69
-338664	-211741.22
-357641	-212095.36
-402682	-212320.53
-392162	-212413.52
-350117	-212398.25
-336702	-212313.73
-355327	-212203.16
-401895	-212097.22
-394443	-212023.75
-351379	-212001.39
-334357	-212032.6
-352015	-212110.44
-399572	-212214.16
-393570	-212332.47
-350031	-212461.86
-333221	-212597.02
-350873	-212736.62
-399004	-212867.34
-392886	-212981.72
-348881	-213072.6
-332314	-213128.92
-350662	-213143.2
-399479	-213107.52
-392203	-213039.6
-348313	-212978.19
-331741	-212976.44
-350206	-213099.23
-399408	-213399.0
-392582	-213929.27
-348988	-214720.25
-332179	-215765.03
-350582	-217016.52
-394794	-218382.11
-396700	-219748.17
-353101	-220996.02
-340723	-222009.3
-358362	-222700.23
-408417	-223007.72
-396992	-222930.98
-347577	-222515.0
-332909	-221840.1
-350993	-221011.7
-397708	-220129.73
-387802	-219292.34
-347281	-218573.5
-333304	-218015.12
-350316	-217628.34
-396251	-217388.19
-386681	-217262.78
-346351	-217214.31
-332316	-217206.4
-349608	-217212.55
-394656	-217206.88
-385506	-217181.4
-345736	-217132.52
-332528	-217055.14
-349879	-216940.78
-396261	-216767.36
-385449	-216521.3
-346572	-216193.19
-332469	-215782.11
-349057	-215301.77
-394174	-214770.56
-384009	-214227.94
-345618	-213718.06
-332197	-213278.72
-348847	-212934.1
-393390	-212676.36
-383401	-212483.08
-349028	-212310.31
-332271	-212105.86
-347768	-211820.66
-392982	-211414.02
-383389	-210886.9
-346268	-210277.64
-332267	-209660.19
-347911	-209135.0
-393925	-208800.44
-384763	-208752.69
-347658	-209054.11
-334844	-209718.4
-357216	-210703.58
-398566	-211909.11
-391729	-213205.5
-354090	-214449.53
-342792	-215506.39
-356138	-216277.2
-411932	-216700.89
-396254	-216788.25
-351354	-216600.98
-335731	-216240.36
-351801	-215827.72
-398856	-215466.56
-388904	-215245.52
-351438	-215211.69
-336547	-215368.53
-352322	-215679.5
-397526	-216069.38
-386597	-216464.34
-348974	-216794.62
-334539	-217011.97
-350259	-217095.3
-396439	-217041.02
-387626	-216877.78
-349192	-216644.53
-333411	-216380.78
-349157	-216115.53
-395401	-215854.17
-387408	-215600.14
-349284	-215345.94
-333921	-215081.38
-348731	-214804.6
-391962	-214515.4
-382478	-214236.08
-347676	-213992.47
-334139	-213810.55
-350007	-213709.19
-395350	-213680.88
-384752	-213709.6
-347638	-213757.28
-332742	-213777.9
-348824	-213729.39
-394540	-213576.1
-386017	-213321.36
-349072	-212998.48
-333344	-212672.52
-348065	-212433.31
-392509	-212366.56
-384481	-212553.23
-349297	-213032.45
-334791	-213796.56
-349584	-214789.25
-392457	-215899.02
-384459	-216991.86
-349381	-217913.81
-339253	-218524.6
-351804	-218735.61
-405304	-218501.86
-386184	-217857.9
-344723	-216877.95
-331428	-215676.45
-347508	-214404.81
-392269	-213202.16
-380632	-212191.73
-344865	-211438.72
-332156	-210959.9
-346792	-210742.44
-385956	-210734.06
-377209	-210867.95
-345499	-211058.47
-335243	-211230.77
-351227	-211346.73
-389636	-211386.86
-378192	-211359.62
-345507	-211272.47
-336694	-211139.28
-352402	-210988.39
-390519	-210839.34
-376726	-210711.7
-344076	-210602.0
-336239	-210503.56
-353732	-210423.02
-392493	-210363.88
-378634	-210338.86
-346463	-210343.64
-338093	-210370.94
-356069	-210414.58
-396281	-210455.23
-382381	-210476.05
-349432	-210447.0
-340800	-210345.89
-356916	-210174.95
-395793	-209954.53
-382483	-209740.03
-349309	-209597.48
-340911	-209608.64
-357016	-209860.17
-395937	-210414.48
-381305	-211309.92
-348652	-212525.81
-339730	-213992.1
-357157	-215598.06
-396716	-217194.56
-383125	-218630.44
-350857	-219755.28
-343749	-220456.06
-356161	-220680.25
-406002	-220423.56
-384558	-219760.28
-346707	-218795.56
-338962	-217664.73
-355442	-216517.44
-391545	-215475.7
-377794	-214635.83
-346312	-214036.22
-338581	-213672.92
-354712	-213509.78
-391649	-213479.69
-377726	-213517.69
-346303	-213553.77
-338430	-213540.02
-355414	-213458.36
-392444	-213306.9
-378598	-213109.08
-345984	-212884.22
-337447	-212653.25
-354245	-212435.4
-390477	-212232.95
-375292	-212048.47
-343004	-211867.98
-335555	-211681.53
-351981	-211495.03
-386724	-211318.92
-372740	-211181.6
-342058	-211102.45
-335626	-211100.4
-352709	-211190.75
-386054	-211365.61
-371492	-211605.06
-341821	-211858.4
-336225	-212067.84
-353571	-212186.06
-388342	-212175.72
-373290	-212033.45
-342686	-211774.64
-337157	-211448.86
-354904	-211137.86
-390783	-210926.34
-376359	-210900.14
-344556	-211105.02
-337674	-211549.11
-355788	-212201.28
-392341	-212978.69
-379622	-213772.11
-350092	-214445.8
-342791	-214869.34
-353889	-214952.81
-404872	-214640.38
-382343	-213951.05
-346305	-212942.66
-340036	-211723.62
-356801	-210440.84
-393053	-209239.62
-377389	-208257.44
-345642	-207582.27
-339102	-207256.23
-357306	-207275.81
-394321	-207583.97
-377378	-208100.1
-345909	-208712.27
-340539	-209314.31
-358919	-209824.38
-395103	-210184.7
-376251	-210383.48
-345421	-210427.14
-340475	-210353.27
-358150	-210222.81
-391229	-210096.56
-373400	-210040.25
-343908	-210092.19
-339439	-210277.75
-357924	-210609.19
-391769	-211076.36
-373816	-211664.23
-350076	-212329.95
-340137	-213030.48
-356873	-213721.97
-391156	-214354.61
-375143	-214890.75
-345009	-215286.25
-340159	-215512.08
-358524	-215560.47
-393362	-215440.31
-375749	-215192.58
-346144	-214863.84
-341081	-214520.1
-359095	-214239.78
-394280	-214090.75
-375385	-214134.38
-345183	-214388.61
-339034	-214838.73
-357114	-215438.58
-392103	-216104.36
-377302	-216738.84
-347798	-217228.83
-341261	-217476.84
-351509	-217423.34
-400746	-217038.53
-377112	-216360.86
-343833	-215450.89
-338291	-214410.33
-356691	-213364.28
-389661	-212428.69
-372095	-211706.88
-343162	-211250.1
-338270	-211069.7
-356338	-211138.55
-389103	-211389.11
-371531	-211741.08
-343032	-212093.42
-338651	-212359.58
-357710	-212481.38
-390518	-212425.05
-371425	-212197.6
-342404	-211815.84
-338014	-211317.39
-356460	-210752.5
-389244	-210164.92
-371652	-209599.55
-342913	-209075.03
-338415	-208604.28
-356938	-208199.2
-388473	-207865.69
-370797	-207619.14
-342795	-207461.42
-338664	-207399.11
-357658	-207439.44
-389687	-207578.69
-371222	-207811.4
-343244	-208106.47
-339389	-208428.25
-358201	-208744.28
-389688	-209023.45
-372044	-209257.75
-344262	-209444.08
-344334	-209603.95
-359932	-209785.4
-392360	-210041.19
-373332	-210431.02
-345177	-210983.61
-341049	-211702.77
-360559	-212562.72
-393794	-213497.89
-377339	-214425.02
-349442	-215233.88
-345541	-215822.42
-352991	-216121.94
-404707	-216089.14
-383349	-215751.31
-346066	-215162.12
-342134	-214420.27
-360814	-213650.47
-392018	-212970.89
-372174	-212486.6
-344348	-212246.92
-341231	-212258.08
-360502	-212482.44
-391268	-212840.38
-371207	-213240.98
-343983	-213578.77
-341678	-213771.16
-360459	-213773.69
-390884	-213579.98
-371289	-213232.1
-343585	-212788.23
-340790	-212324.67
-360834	-211918.84
-392399	-211625.77
-372720	-211482.84
-344986	-211483.22
-341932	-211597.25
-362113	-211782.05
-394461	-211985.11
-373658	-212171.53
-346046	-212308.83
-341680	-212389.77
-360876	-212428.05
-391559	-212445.33
-371552	-212474.94
-343731	-212530.66
-339588	-212617.86
-359801	-212730.72
-390602	-212846.23
-371807	-212945.11
-344032	-212997.33
-338946	-212988.02
-357581	-212921.4
-388332	-212814.02
-370209	-212704.19
-342619	-212622.3
-337578	-212598.11
-356259	-212650.2
-386641	-212771.6
-370268	-212941.25
-343555	-213107.77
-337201	-213215.27
-352817	-213214.5
-401029	-213059.73
-376396	-212750.75
-341416	-212294.88
-336772	-211734.14
-356559	-211134.9
-386807	-210564.6
-368507	-210094.64
-341692	-209766.05
-336971	-209597.67
-355932	-209583.44
-387214	-209686.9
-371210	-209864.55
-344802	-210055.94
-339268	-210211.33
-358777	-210299.62
-389919	-210305.86
-371833	-210244.67
-345391	-210133.34
-340918	-210001.16
-361791	-209878.69
-393950	-209783.95
-373546	-209732.34
-345428	-209714.27
-341279	-209716.31
-361981	-209725.62
-391290	-209730.42
-372499	-209736.53
-345331	-209749.11
-341287	-209786.1
-361016	-209871.52
-390809	-210020.84
-371689	-210248.88
-344218	-210543.64
-340981	-210881.89
-360805	-211232.86
-390385	-211557.72
-371927	-211834.12
-344826	-212042.6
-341730	-212189.2
-362051	-212304.27
-390603	-212430.38
-371022	-212625.19
-344772	-212927.61
-342268	-213360.9
-362777	-213922.92
-391533	-214575.0
-373975	-215257.67
-344213	-215881.27
-346712	-216354.11
-360952	-216604.69
-406929	-216578.67
-381604	-216281.2
-345722	-215736.34
-342816	-215011.2
-362539	-214199.88
-390227	-213396.61
-370880	-212693.55
-344673	-212143.81
-342021	-211772.55
-361816	-211574.28
-389058	-211512.64
-369382	-211544.3
-343595	-211612.69
-341179	-211678.53
-360470	-211726.17
-387651	-211758.02
-369095	-211802.81
-342704	-211885.34
