EEG_CH1_RAW	EEG_CH1_BP_0p5_20
-412892	100.21343
-290176	222.94006
-389853	396.15924
-477277	612.1897
-514231	847.26514
-410565	1046.513
-282749	1167.3911
-391272	1237.8818
-486373	1273.4873
-514018	1291.348
-411989	1295.2241
-289564	1301.8124
-393519	1382.3917
-482463	1570.6298
-513904	1870.6508
-411682	2236.877
-289448	2611.005
-392625	2978.7852
-482120	3299.4875
-513778	3534.4763
-412039	3643.1277
-289728	3624.8083
-513183	3596.9373
-513372	3608.973
-418158	3717.3137
-292977	3964.923
-400002	4421.016
-480845	5079.36
-513926	5878.859
-429329	6697.0977
-285536	7393.5674
-386064	7907.8564
-480148	8196.569
-513857	8267.426
-429934	8173.8506
-286067	8021.783
-387101	8010.309
-480622	8299.848
-513924	8985.633
-430611	10055.678
-286643	11397.421
-388186	12880.264
-480786	14298.86
-513992	15440.858
-431404	16132.607
-287518	16303.832
-388682	16080.403
-480797	15681.781
-513945	15393.544
-431503	15488.725
-287444	16169.215
-388104	17569.438
-480501	19625.77
-513939	22094.756
-430001	24589.318
-281425	26680.793
-373299	28070.523
-459804	28593.354
-513354	28298.547
-434172	27435.031
-288444	26427.223
-387210	25843.805
-480273	26174.428
-513934	27714.246
-430784	30458.928
-286677	34092.402
-387521	38102.83
-480622	41808.29
-513956	44537.62
-431672	45795.89
-287407	45424.16
-389008	43737.773
-480941	41401.992
-513991	39316.234
-432176	38395.41
-287829	39349.19
-388804	42541.242
-480876	47767.67
-514029	54267.695
-432081	60846.402
-287447	66145.75
-387922	69037.81
-480780	68851.46
-513956	65623.78
-431511	60176.395
-287439	54031.984
-389087	49196.184
-480815	47633.31
-514032	50791.082
-431510	59141.72
-287059	71900.3
-387732	87023.97
-480613	101315.125
-513998	110884.516
-431645	111772.83
-287040	100674.38
-387683	75654.45
-480691	36516.125
-513945	-15010.0
-432057	-75429.84
-287355	-139934.34
-387961	-203029.16
-480704	-259440.12
-514054	-304878.75
-430946	-336661.8
-281959	-354025.9
-373918	-358059.97
-460309	-351482.34
-513406	-338058.5
-435518	-321928.53
-289517	-306884.34
-388882	-295725.78
-480887	-289999.88
-513984	-289899.75
-431517	-294446.78
-286626	-301846.0
-387270	-309898.22
-480621	-316579.5
-514037	-320421.8
-431167	-320756.72
-286602	-317741.06
-387782	-312151.6
-480659	-305214.9
-513969	-298272.28
-431487	-292486.72
-286832	-288603.8
-387876	-286779.06
-480697	-286697.97
-514029	-287697.1
-431744	-288975.62
-286807	-289790.34
-387868	-289559.7
-480808	-288059.2
-513977	-285419.75
-431757	-282069.2
-287031	-278589.84
-387806	-275499.2
-480696	-273211.2
-514031	-271934.53
-431675	-271655.22
-286689	-272150.84
-387129	-272997.16
-480445	-273760.8
-513992	-274080.03
-431524	-273746.9
-286680	-272721.0
-388291	-271048.9
-481372	-268915.5
-513951	-266568.97
-431359	-264269.2
-286798	-262222.5
-387778	-260486.84
-480528	-259065.02
-514088	-257911.62
-431270	-256976.25
-282171	-256219.7
-373319	-255564.72
-459909	-254995.81
-513434	-254531.77
-436245	-254232.22
-289985	-254151.1
-388846	-254247.67
-481088	-254471.12
-514121	-254749.22
-432257	-255013.05
-287194	-255199.55
-387549	-255200.84
-480786	-254972.44
-514129	-254523.23
-432027	-253923.92
-286887	-253273.97
-386781	-252613.88
-480369	-251999.34
-514041	-251475.25
-431918	-251080.48
-286901	-250832.34
-387821	-250663.89
-480887	-250527.05
-514122	-250388.92
-431911	-250248.28
-287158	-250119.05
-388266	-249957.56
-480745	-249750.78
-514091	-249496.95
-432186	-249214.67
-287431	-248927.73
-388087	-248598.86
-480914	-248226.53
-514200	-247835.86
-432690	-247487.78
-287546	-247255.6
-388162	-247142.78
-480911	-247162.27
-514148	-247309.4
-432302	-247565.1
-287400	-247879.94
-388843	-248112.84
-480951	-248143.2
-514116	-247878.9
-432047	-247291.0
-287071	-246411.11
-387321	-245317.77
-480492	-244019.38
-514120	-242735.02
-431274	-241664.11
-282013	-240988.55
-373082	-240768.4
-460240	-241041.38
-513519	-241794.67
-435726	-242910.06
-289389	-244219.83
-388512	-245476.9
-480944	-246507.64
-514155	-247226.6
-432345	-247582.98
-287425	-247603.33
-387938	-247312.11
-480815	-246830.28
-514107	-246328.2
-432197	-245926.44
-286931	-245710.64
-389129	-245651.89
-481041	-245730.39
-514124	-245943.67
-432651	-246189.8
-287530	-246420.52
-388412	-246562.36
-480923	-246627.89
-514140	-246611.19
-432488	-246552.48
-287350	-246504.5
-387821	-246466.58
-480830	-246483.78
-514151	-246528.86
-432470	-246574.86
-287161	-246595.14
-387361	-246525.56
-480770	-246386.8
-514197	-246179.25
-432335	-245952.36
-287071	-245783.1
-387710	-245706.08
-480771	-245803.39
-514152	-246072.03
-432009	-246482.05
-287040	-246964.83
-387554	-247370.27
-480517	-247602.23
-514001	-247530.1
-432281	-247087.53
-287264	-246282.8
-387276	-245151.88
-480426	-243864.28
-514132	-242586.06
-431492	-241517.58
-282287	-240845.56
-373720	-240654.9
-459432	-241016.56
-513562	-241857.4
-432944	-243056.55
-287976	-244437.28
-388723	-245763.44
-480977	-246883.77
-514230	-247650.1
-433210	-248005.03
-287943	-247977.72
-388191	-247618.39
-480887	-247087.92
-514166	-246511.58
-433422	-246019.28
-287817	-245711.05
-388069	-245589.34
-480849	-245671.4
-514179	-245885.16
-433177	-246159.23
-287655	-246431.97
-388040	-246615.72
-480896	-246719.8
-514177	-246735.25
-432856	-246697.1
-283346	-246661.34
-388153	-246629.45
-481977	-246653.83
-514181	-246714.66
-433094	-246791.31
-287462	-246860.7
-388009	-246856.58
-480895	-246795.22
-514232	-246668.53
-432868	-246515.06
-287552	-246401.72
-388447	-246353.22
-480920	-246447.2
-514194	-246679.58
-432812	-247023.31
-287091	-247417.73
-387147	-247722.44
-480712	-247851.97
-514210	-247685.42
-432747	-247163.81
-287176	-246297.98
-387287	-245123.69
-480564	-243806.9
-514200	-242508.84
-431828	-241423.31
-277664	-240733.64
-370881	-240520.88
-463034	-240853.62
-513579	-241663.61
-433312	-242834.17
-287961	-244195.77
-388092	-245518.28
-480744	-246656.53
-514139	-247466.47
-432665	-247891.92
-287221	-247960.28
-387646	-247716.84
-480604	-247314.77
-514131	-246869.25
-432787	-246499.86
-287337	-246295.25
-388718	-246247.77
-480869	-246367.61
-514172	-246579.34
-432594	-246810.9
-287170	-247005.25
-388162	-247083.05
-480789	-247064.53
-514164	-246954.27
-432822	-246799.58
-287390	-246665.14
-387887	-246561.05
-480797	-246541.4
-514181	-246582.58
-433154	-246655.6
-287358	-246727.19
-387646	-246719.52
-480632	-246639.6
-514196	-246473.67
-433544	-246260.39
-287779	-246072.67
-387624	-245946.77
-480642	-245974.06
-514141	-246165.23
-433648	-246504.94
-287491	-246938.84
-387394	-247325.39
-480687	-247569.73
-513975	-247535.58
-432820	-247142.5
-287290	-246380.25
-387487	-245266.48
-480367	-243954.94
-514056	-242602.81
-429612	-241411.84
-279880	-240578.77
-370571	-240208.58
-461899	-240396.19
-513423	-241097.8
-433449	-242217.08
-287616	-243596.5
-388321	-245007.78
-480854	-246296.73
-514116	-247301.69
-433976	-247941.39
-288548	-248216.22
-389641	-248145.45
-480810	-247861.31
-514031	-247466.02
-433584	-247074.17
-288267	-246780.77
-388805	-246591.77
-480655	-246537.25
-514018	-246564.78
-433109	-246625.31
-287625	-246681.3
-388124	-246667.9
-480457	-246613.14
-513936	-246521.39
-432068	-246433.77
-286867	-246403.34
-387429	-246425.38
-480176	-246538.28
-513880	-246704.17
-431030	-246884.25
-285599	-247038.16
-385082	-247086.78
-479620	-247038.25
-513847	-246884.73
-431022	-246671.69
-285171	-246478.11
-384579	-246344.34
-479646	-246362.72
-513831	-246541.81
-431586	-246862.73
-285465	-247264.75
-385149	-247601.2
-480026	-247772.8
-513909	-247642.58
-431591	-247134.94
-285831	-246247.78
-384617	-245009.69
-479648	-243587.05
-514079	-242150.02
-428511	-240909.98
-277908	-240068.92
-367987	-239731.16
-460552	-239984.12
-513739	-240771.98
-431806	-241983.36
-284729	-243445.11
-381555	-244915.1
-479476	-246228.62
-514256	-247219.6
-427160	-247812.8
-278575	-248018.5
-373029	-247870.88
-476548	-247514.9
-513702	-247069.34
-425881	-246663.47
-277074	-246398.97
-371452	-246284.31
-475474	-246340.78
-512823	-246503.81
-423767	-246711.83
-276108	-246910.95
-371571	-247021.77
-475136	-247057.12
-511897	-247014.0
-425101	-246933.47
-275976	-246872.2
-367729	-246835.11
-473175	-246867.44
-511344	-246944.3
-416799	-247041.28
-268551	-247127.97
-361474	-247133.64
-470874	-247066.55
-510751	-246919.0
-418335	-246737.17
-268979	-246594.94
-360137	-246527.95
-470724	-246616.52
-510442	-246862.88
-417219	-247244.12
-265811	-247693.53
-354698	-248062.27
-468431	-248241.84
-509889	-248094.69
-410956	-247550.16
-263198	-246608.61
-353925	-245305.75
-468319	-243810.47
-509773	-242303.11
-411455	-241009.64
-261622	-240142.6
-349464	-239816.14
-450671	-240123.05
-509765	-241010.11
-434453	-242363.1
-286710	-244001.48
-385921	-245671.2
-478344	-247191.92
-510778	-248379.33
-434578	-249136.66
-280851	-249461.31
-366567	-249378.73
-472030	-249029.69
-510146	-248536.7
-420450	-248040.66
-268380	-247659.72
-357536	-247420.95
-469051	-247360.16
-509520	-247426.25
-416263	-247566.0
-266182	-247725.56
-355236	-247818.19
-468223	-247841.03
-509004	-247774.1
-409102	-247645.78
-261734	-247498.83
-350961	-247332.16
-465794	-247192.9
-508757	-247064.6
-406962	-246943.97
-259336	-246822.22
-348502	-246652.7
-465229	-246461.95
-508832	-246256.31
-409508	-246088.58
-260506	-246026.88
-348649	-246094.31
-464719	-246349.22
-508496	-246769.62
-404791	-247313.98
-258265	-247897.05
-347689	-248361.1
-463909	-248598.28
-508578	-248479.78
-409657	-247950.73
-260788	-247028.3
-350327	-245764.27
-466154	-244334.27
-508916	-242914.89
-413507	-241715.81
-260896	-240922.34
-345222	-240612.84
-448351	-240841.05
-508766	-241517.84
-422131	-242504.89
-267416	-243614.22
-352871	-244604.38
-466783	-245319.56
-509262	-245623.08
-417531	-245482.86
-264597	-244958.9
-352469	-244136.39
-466472	-243201.94
-509064	-242306.34
-417235	-241598.17
-263548	-241179.39
-350961	-241041.62
-465902	-241169.45
-509101	-241454.55
-416342	-241786.67
-263251	-242062.62
-351490	-242159.2
-466113	-242050.69
-509146	-241711.8
-418084	-241179.22
-263221	-240522.75
-350779	-239775.55
-465987	-239022.28
-509250	-238290.83
-418286	-237615.14
-263604	-237022.55
-347667	-236490.77
-461985	-236055.53
-509270	-235713.9
-419823	-235491.02
-263334	-235414.67
-349719	-235451.12
-465654	-235596.69
-509001	-235772.44
-417744	-235891.06
-262647	-235856.69
-350827	-235532.88
-466015	-234876.33
-509098	-233863.12
-418297	-232572.92
-263022	-231178.6
-350891	-229878.92
-466126	-228969.47
-509197	-228696.48
-417552	-229270.4
-259344	-230804.33
-342149	-233229.84
-448524	-236390.61
-508899	-239955.4
-423398	-243536.97
-264132	-246726.5
-349117	-249118.23
-466236	-250469.52
-509414	-250646.83
-418606	-249706.64
-261760	-247867.92
-350458	-245417.22
-466417	-242753.08
-509501	-240219.27
-421058	-238109.31
-263277	-236608.81
-351837	-235721.86
-466820	-235386.31
-509648	-235405.27
-421265	-235561.97
-263381	-235658.14
-349980	-235505.47
-465769	-235057.55
-509455	-234317.67
-418626	-233390.73
-260558	-232436.61
-347816	-231576.36
-465362	-230958.17
-509426	-230629.58
-418039	-230591.72
-257276	-230790.19
-353721	-231079.8
-466815	-231364.9
-509482	-231526.61
-418648	-231513.17
-261265	-231338.16
-348552	-231024.05
-465505	-230686.98
-509587	-230412.77
-420636	-230292.12
-263289	-230384.66
-350792	-230652.47
-466621	-231065.5
-509614	-231516.19
-420931	-231908.08
-263778	-232169.47
-352233	-232222.66
-467167	-232100.92
-509520	-231849.45
-420901	-231575.11
-261751	-231411.52
-345317	-231436.36
-448979	-231749.62
-509268	-232346.64
-427720	-233189.64
-268210	-234190.72
-353585	-235186.3
-467506	-236064.45
-509725	-236694.0
-422468	-237007.7
-264926	-237004.86
-353071	-236698.72
-467591	-236205.69
-509734	-235627.27
-421406	-235084.3
-264301	-234684.9
-352301	-234456.53
-466921	-234438.12
-509632	-234586.69
-421490	-234846.27
-263787	-235156.64
-351927	-235418.7
-467417	-235606.67
-509877	-235680.3
-421873	-235643.58
-264081	-235531.06
-352062	-235344.77
-467151	-235145.11
-509864	-234946.27
-421602	-234768.44
-264020	-234630.47
-351857	-234504.92
-467222	-234418.56
-509876	-234364.7
-421793	-234358.23
-263664	-234428.75
-350925	-234562.98
-467054	-234792.89
-509952	-235094.67
-421114	-235437.5
-263327	-235778.67
-351298	-236020.22
-467428	-236117.84
-509923	-236002.67
-419963	-235647.77
-262610	-235073.17
-350697	-234302.38
-466597	-233449.55
-509797	-232613.98
-419347	-231914.25
-260481	-231461.38
-343951	-231294.05
-449831	-231458.66
-509669	-231906.95
-425233	-232573.3
-266179	-233367.12
-351057	-234149.64
-466389	-234854.36
-509899	-235401.42
-419566	-235771.75
-262971	-235992.0
-350061	-236069.34
-465489	-236084.34
-509722	-236076.89
-419084	-236086.66
-262913	-236136.42
-350507	-236181.4
-466777	-236214.27
-509934	-236182.36
-419376	-236054.25
-262431	-235827.1
-348202	-235483.78
-465433	-235086.84
-509586	-234679.86
-416342	-234327.23
-261194	-234090.5
-348279	-233973.48
-465169	-234001.88
-509593	-234135.62
-415385	-234328.08
-260514	-234530.77
-347325	-234667.16
-464786	-234733.38
-509545	-234719.06
-417732	-234657.75
-262949	-234612.25
-350137	-234616.31
-466371	-234746.03
-509843	-235013.0
-419129	-235404.7
-262251	-235877.36
-346912	-236320.67
-464506	-236660.92
-509646	-236796.1
-417300	-236669.06
-262260	-236277.44
-349182	-235636.98
-466151	-234867.55
-509792	-234087.6
-416288	-233440.8
-258978	-233063.88
-341759	-233014.38
-448526	-233346.66
-509521	-234005.8
-423366	-234904.2
-264422	-235915.66
-347224	-236862.92
-464815	-237639.53
-509789	-238139.5
-418082	-238325.05
-261290	-238222.88
-345664	-237869.78
-464407	-237389.36
-509642	-236878.44
-415376	-236436.83
-259835	-236142.5
-345822	-235995.38
-464117	-236011.97
-509629	-236140.84
-414341	-236329.19
-259439	-236530.47
-345806	-236672.19
-463839	-236757.5
-509829	-236774.42
-417007	-236744.17
-260242	-236704.48
-344474	-236651.25
-464117	-236625.77
-510077	-236617.23
-421822	-236615.11
-263849	-236611.53
-380690	-236550.8
-599695	-236429.12
-694580	-236242.9
-627687	-236021.69
-486702	-235816.61
-581316	-235643.56
-706839	-235566.62
-763565	-235588.81
-688354	-235694.52
-543006	-235846.67
-641177	-235942.34
-779531	-235921.88
-844291	-235698.16
-767676	-235227.75
-619722	-234521.34
-702067	-233602.3
-830568	-232592.73
-879830	-231610.23
-746712	-230804.67
-631449	-230289.27
-715799	-230109.89
-823036	-230304.42
-889077	-230796.33
-767608	-231485.45
-666104	-232210.89
-754374	-232790.8
-876933	-233122.31
-922922	-233121.12
-791234	-232793.95
-687414	-232198.25
-779520	-231423.03
-899246	-230634.3
-941649	-229950.05
-811304	-229469.38
-703427	-229212.42
-790881	-229108.48
-903691	-229083.84
-945821	-228993.22
-817767	-228718.62
-706319	-228165.67
-791096	-227284.14
-907338	-226151.84
-948134	-224876.2
-805580	-223629.89
-703851	-222564.4
-791249	-221775.47
-904534	-221339.69
-940824	-221208.02
-793200	-221276.03
-699363	-221360.45
-781389	-221255.88
-900263	-220845.14
-933372	-220050.62
-780069	-218921.61
-700459	-217571.0
-784484	-216168.47
-901738	-214946.08
-933276	-214057.58
-782411	-213586.75
-704034	-213464.73
-788899	-213494.23
-901631	-213441.81
-930969	-213014.12
-779047	-211991.62
-702227	-210243.67
-785454	-207795.47
-899403	-204892.73
-925576	-201879.98
-774222	-199186.77
-693154	-197179.16
-775169	-196083.69
-877847	-195975.52
-933655	-196653.11
-796631	-197745.73
-702618	-198725.44
-783743	-199042.89
-900397	-198317.73
-929512	-196362.0
-776879	-193297.61
-707042	-189495.88
-788517	-185530.22
-906443	-182094.64
-934759	-179761.86
-780791	-178886.3
-716101	-179437.5
-797375	-180997.66
-913881	-182868.5
-940797	-184137.03
-787831	-183937.5
-724219	-181620.98
-805556	-176985.52
-922940	-170447.06
-949046	-162978.7
-795124	-156063.94
-731786	-151433.2
-810033	-150815.94
-926302	-155688.78
-951095	-166936.67
-796227	-184735.39
-736823	-208444.4
-814964	-236726.19
-930651	-267791.22
-952719	-299603.8
-797830	-330236.78
-737932	-358092.28
-812936	-382126.84
-929799	-401973.44
-954607	-417826.16
-801847	-430352.62
-740246	-440428.94
-817583	-448949.6
-931061	-456679.0
-950856	-464047.3
-798008	-471168.53
-738391	-477837.3
-813632	-483686.6
-927146	-488379.62
-940636	-491683.53
-792462	-493618.8
-737929	-494445.9
-813482	-494662.12
-876633	-494953.47
-799477	-495977.16
-570748	-498260.0
-464330	-502023.9
-529452	-507173.34
-632211	-513361.28
-647966	-519979.72
-491315	-526341.94
-420945	-531766.0
-495466	-535736.9
-604997	-538038.06
-620416	-538708.1
-462764	-538058.06
-399254	-536538.56
-474332	-534659.0
-585747	-532917.3
-600714	-531629.1
-445837	-530922.75
-385242	-530685.06
-459714	-530636.1
-574826	-530455.2
-587857	-529796.44
-433272	-528424.25
-376124	-526220.06
-450579	-523244.28
-565249	-519753.38
-577700	-516079.56
-423173	-512603.0
-367257	-509629.0
-438768	-507362.6
-555424	-505913.2
-562344	-505221.06
-409157	-505130.38
-358916	-505382.9
-445547	-505708.97
-552875	-505924.97
-555408	-505885.25
-402123	-505543.94
-352591	-504890.7
-419443	-503974.22
-541003	-502897.97
-554323	-501733.06
-405854	-500542.03
-355183	-499330.0
-432816	-498096.0
-541992	-496889.47
-548004	-495761.34
-398322	-494812.78
-341394	-494148.47
-414658	-493888.3
-519789	-494176.5
-563135	-495060.97
-408016	-496538.84
-340239	-498466.62
-420578	-500615.75
-535117	-502752.44
-565106	-504613.72
-420852	-506019.94
-335966	-506882.06
-413462	-507249.12
-533065	-507360.1
-551997	-507533.44
-395956	-508144.1
-337527	-509487.03
-423050	-511732.9
-526835	-514912.9
-548126	-518818.9
-394941	-523086.22
-335364	-527212.6
-420232	-530697.3
-535532	-533197.1
-568049	-534543.5
-451574	-534840.8
-335601	-534439.06
-410154	-533852.7
-521041	-533708.8
-547813	-534522.0
-397304	-536612.8
-327693	-539958.6
-410074	-544197.7
-520801	-548740.7
-549176	-552814.7
-403008	-555681.2
-327848	-556809.9
-408327	-556056.06
-518384	-553783.06
-538711	-550762.5
-381988	-548084.4
-319029	-546876.9
-393088	-548056.1
-505099	-552104.7
-521899	-558788.8
-372886	-567118.1
-320017	-575361.44
-397065	-581298.0
-512912	-582593.06
-540736	-577125.94
-398570	-563428.9
-319524	-540945.56
-398102	-510243.3
-497886	-472999.06
-541864	-431744.47
-401026	-389572.38
-317111	-349620.78
-396424	-314668.4
-509060	-286755.7
-538745	-266891.34
-396606	-255016.7
-317334	-250059.75
-398152	-250240.8
-508441	-253435.55
-532164	-257520.44
-384771	-260758.16
-308282	-261983.48
-393751	-260751.11
-511491	-257302.69
-535548	-252363.56
-393707	-246948.64
-313790	-242052.44
-388931	-238466.16
-503562	-236634.72
-536784	-236564.4
-389582	-237908.03
-294827	-240033.75
-377924	-242227.03
-499826	-243857.83
-533731	-244478.67
-384136	-243938.89
-292814	-242338.98
-372840	-240018.67
-497086	-237457.78
-537355	-235137.84
-400054	-233474.39
-295782	-232701.62
-369062	-232875.17
-493739	-233872.44
-535374	-235422.47
-394162	-237206.16
-290219	-238881.56
-366616	-240178.31
-491331	-240931.06
-531111	-241079.89
-384469	-240704.16
-285508	-239946.83
-363278	-239025.6
-490916	-238183.34
-534244	-237641.78
-396502	-237603.39
-284529	-238186.62
-369301	-239433.5
-478572	-241304.06
-540281	-243641.9
-442693	-246235.89
-293317	-248809.33
-367529	-251057.36
-491886	-252716.58
-538922	-253580.92
-429705	-253575.45
-282840	-252766.42
-363271	-251360.62
-489051	-249692.39
-539371	-248158.47
-451219	-247166.75
-290741	-247060.66
-368715	-248026.72
-492409	-250069.1
-538937	-252981.08
-460242	-256391.45
-292752	-259836.4
-368733	-262814.5
-491294	-264902.38
-538089	-265819.22
-457125	-265494.97
-284539	-264086.03
-361519	-261910.23
-490879	-259395.28
-536940	-256978.83
-456397	-255028.27
-296907	-253774.06
-376126	-253245.94
-494187	-253292.81
-534931	-253615.38
-434677	-253857.98
-293914	-253688.39
-395412	-252865.06
-498977	-251317.48
-534913	-249139.69
-438278	-246592.88
-297434	-244045.83
-412272	-241881.94
-500170	-240456.4
-532094	-239985.0
-408903	-240539.55
-278200	-242016.5
-423367	-244154.34
-505841	-246633.95
-532098	-249089.03
-413400	-251208.89
-272380	-252774.7
-425914	-253663.06
-500904	-253910.1
-533453	-253619.78
-456646	-252969.5
-297992	-252179.25
-468197	-251402.66
-527112	-250785.44
-533817	-250369.34
-465212	-250136.16
-302872	-250047.16
-458761	-250010.8
-522639	-249988.66
-533369	-249933.25
-461076	-249822.66
-297604	-249675.95
-452617	-249484.11
-519226	-249275.72
-532517	-249033.36
-453207	-248718.69
-290599	-248294.78
-469774	-247676.89
-529969	-246847.42
-532407	-245789.47
-462018	-244524.67
-292927	-243147.88
-470089	-241748.64
-531122	-240492.8
-532073	-239516.75
-478694	-238918.38
-315614	-238773.81
-474125	-239050.47
-531433	-239687.66
-532051	-240536.45
-484102	-241390.12
-330721	-242062.31
-479539	-242350.22
-531719	-242145.64
-531999	-241386.88
-490261	-240093.92
-348954	-238406.81
-486689	-236507.86
-531894	-234662.17
-531669	-233123.88
-479429	-232106.12
-357437	-231782.89
-494072	-232218.73
-531723	-233414.11
-530841	-235239.86
-437065	-237486.62
-331496	-239896.25
-494212	-242175.53
-531234	-244107.23
-530479	-245506.38
-435525	-246289.28
-322948	-246468.5
-494600	-246140.77
-530742	-245532.72
-523905	-244873.16
-370368	-244405.2
-292848	-244295.5
-492063	-244619.08
-530011	-245421.27
-528334	-246607.16
-408567	-248013.0
-293462	-249427.39
-490056	-250613.9
-529538	-251434.94
-528514	-251782.62
-418637	-251649.61
-271133	-251114.77
-482015	-250281.64
-528589	-249354.47
-528415	-248494.69
-450836	-247829.19
-292553	-247447.2
-482205	-247313.39
-514069	-247429.22
-503566	-247710.03
-457262	-248053.67
-293069	-248407.36
-478864	-248708.36
-416782	-249027.66
-352499	-249406.78
-447524	-249844.89
-284602	-250405.6
-472925	-251044.58
-346374	-251771.62
-318551	-252447.47
-423311	-252860.3
-252298	-252880.97
-462422	-252350.11
-286591	-251312.95
-301609	-249807.14
-399791	-247971.94
-233342	-246127.56
-455401	-244583.38
-260914	-243788.6
-330085	-243999.52
-398008	-245372.48
-270976	-247962.42
-468919	-251602.47
-260926	-256104.66
-343560	-261015.16
-389078	-265857.06
-252935	-270198.94
-461713	-273631.47
-246248	-276014.03
-338376	-277199.47
-384363	-277225.2
-260317	-276298.6
-461335	-274668.72
-234725	-272767.8
-342568	-270857.12
-375106	-269191.38
-250774	-267981.78
-457797	-267301.56
-232769	-267276.94
-352309	-267794.4
-340641	-268743.5
-233857	-269999.53
-455463	-271388.34
-233011	-272890.78
-346116	-274350.8
-337888	-275697.6
-240072	-276907.06
-456097	-277954.22
-229368	-278990.75
-344647	-280019.4
-334961	-281104.88
-220004	-282320.84
-441920	-283678.4
-213585	-285304.3
-346982	-287110.84
-283225	-289038.47
-218046	-290974.7
-448596	-292759.72
-230893	-294381.78
-341481	-295682.84
-267868	-296604.3
-214860	-297113.53
-445737	-297203.75
-221043	-297056.0
-350382	-296693.7
-299252	-296198.78
-215507	-295614.75
-445845	-294911.97
-225037	-294163.0
-334100	-293238.75
-241839	-292062.28
-214378	-290536.62
-440337	-288597.84
-202111	-286394.7
-336274	-283958.25
-287426	-281453.25
-213314	-279056.25
-413154	-276904.97
-158731	-275270.1
-344702	-274147.66
-278836	-273542.1
-224073	-273355.47
-449012	-273407.66
-227142	-273675.75
-349900	-273984.9
-305329	-274286.44
-223008	-274608.6
-442721	-275000.84
-213482	-275738.47
-357715	-276898.94
-336568	-278562.53
-233941	-280709.7
-449143	-283117.25
-231793	-285606.47
-355922	-287704.0
-320811	-288942.94
-230319	-288881.3
-450273	-287114.38
-225557	-283585.6
-347486	-278245.47
-361676	-271284.53
-245627	-263081.97
-451796	-254044.67
-232411	-244784.12
-359321	-235674.86
-358046	-227039.19
-249856	-219082.22
-455681	-211822.92
-238201	-205356.88
-357996	-199549.25
-364961	-194335.05
-250542	-189723.3
-454603	-185731.28
-235914	-182613.3
-359528	-180455.28
-374971	-179385.7
-261571	-179470.55
-456529	-180602.78
-237814	-182700.45
-362052	-185356.66
-375259	-188161.38
-261069	-190709.25
-457830	-192596.53
-242367	-193710.8
-361054	-193895.12
-378224	-193238.48
-265954	-191990.06
-459561	-190410.06
-243244	-188956.11
-359765	-187806.3
-379982	-187105.97
-263287	-186886.98
-459344	-186962.66
-243844	-187242.19
-357775	-187388.4
-382990	-187174.44
-265447	-186493.48
-460540	-185281.02
-248205	-183786.45
-359473	-182146.05
-383092	-180613.69
-271146	-179448.47
-462679	-178750.16
-250725	-178679.61
-358998	-179040.45
-384781	-179596.03
-267246	-180068.5
-462216	-180084.44
-253464	-179521.56
-359689	-178156.06
-390514	-175990.11
-276286	-173215.16
-465052	-170058.23
-260262	-167006.11
-360706	-164345.45
-390147	-162373.05
-272317	-161309.25
-464431	-161139.17
-260726	-161887.44
-363457	-163253.25
-393209	-164925.97
-275949	-166603.66
-465472	-167917.8
-262512	-168749.77
-362321	-168880.9
-393934	-168263.12
-278517	-166976.08
-466966	-165084.39
-265048	-162868.95
-360803	-160440.06
-395765	-157973.38
-280775	-155658.11
-467159	-153592.12
-267936	-152010.47
-360544	-150940.14
-393961	-150466.84
-276984	-150687.69
-466539	-151603.39
-267641	-153339.95
-361656	-155778.5
-393417	-158822.53
-273246	-162341.62
-466147	-166104.27
-267873	-169982.89
-359896	-173644.11
-394516	-176857.2
-276601	-179468.94
-467230	-181333.92
-270707	-182552.28
-362771	-183106.69
-394499	-183138.7
-276762	-182871.58
-467741	-182480.42
-271822	-182303.31
-361024	-182421.31
-395326	-182933.62
-277328	-183898.98
-467815	-185218.88
-273152	-186914.84
-363992	-188754.89
-398972	-190573.34
-281947	-192254.7
-468551	-193622.48
-274549	-194741.08
-362779	-195505.78
-399754	-195964.53
-278891	-196251.72
-468015	-196360.66
-273532	-196512.4
-359336	-196683.14
-402042	-196949.64
-284384	-197380.14
-469561	-197859.34
-276539	-198483.94
-364566	-199095.12
-403854	-199691.48
-287691	-200274.67
-471439	-200722.2
-280650	-201158.17
-361233	-201472.9
-404361	-201731.84
-289411	-201970.67
-471971	-202109.12
-283927	-202266.25
-365128	-202325.92
-407202	-202338.06
-292043	-202313.92
-473845	-202172.27
-292399	-202047.12
-366282	-201852.69
-408814	-201684.39
-293452	-201595.44
-474272	-201537.25
-290581	-201646.77
-368824	-201814.48
-414427	-202087.36
-300632	-202440.75
-475297	-202752.92
-287185	-203097.1
-367908	-203323.05
-414696	-203479.11
-304577	-203570.23
-476795	-203559.17
-285494	-203603.33
-365135	-203633.52
-417704	-203757.53
-306366	-204009.64
-478196	-204335.73
-292833	-204831.62
-368767	-205345.88
-419786	-205892.12
-312492	-206417.94
-481222	-206811.53
-301607	-207155.17
-369102	-207323.14
-423823	-207391.22
-313550	-207381.92
-482213	-207289.92
-307810	-207260.23
-369729	-207217.39
-424842	-207246.73
-315274	-207356.58
-482528	-207501.34
-308964	-207763.08
-373398	-208003.53
-424104	-208262.14
-316054	-208510.55
-483464	-208680.06
-302511	-208863.89
-354784	-208939.12
-424884	-208950.97
-321886	-208886.67
-484474	-208705.8
-310697	-208495.02
-375967	-208142.58
-426419	-207731.23
-319565	-207281.12
-484734	-206781.73
-313114	-206378.17
-373227	-206007.45
-425813	-205783.47
-317219	-205707.94
-484354	-205737.81
-312174	-205948.84
-373241	-206186.72
-426542	-206458.97
-318214	-206707.73
-484892	-206836.38
-315548	-206923.55
-375599	-206859.95
-427864	-206739.88
-319451	-206607.42
-485505	-206462.67
-315519	-206468.88
-373552	-206554.81
-428205	-206790.48
-318192	-207152.72
-483842	-207536.78
-306166	-207981.38
-371893	-208301.47
-426289	-208498.72
-317919	-208543.38
-484239	-208366.5
-306778	-208116.42
-371686	-207749.45
-426416	-207407.97
-316571	-207174.0
-484051	-207047.17
-307510	-207173.0
-371141	-207443.94
-427146	-207886.42
-316936	-208446.44
-484046	-208986.06
-308735	-209549.2
-371572	-209977.9
-425091	-210307.84
-314485	-210547.31
-483687	-210655.16
-304910	-210788.0
-368302	-210890.27
-426538	-211064.88
-318521	-211342.73
-484129	-211663.27
-306886	-212125.78
-372341	-212599.42
-427517	-213111.9
-316671	-213640.02
-484376	-214091.98
-309867	-214566.73
-372659	-214958.66
-427011	-215331.38
-316031	-215695.77
-483995	-215979.89
-307969	-216286.8
-370866	-216496.47
-425761	-216649.64
-314812	-216740.45
-483271	-216693.22
-304734	-216633.45
-370032	-216487.06
-424826	-216358.4
-313145	-216309.97
-482852	-216322.95
-303340	-216547.94
-367287	-216900.47
-423437	-217431.16
-310062	-218119.19
-481832	-218842.67
-301806	-219658.31
-369965	-220409.4
-417759	-221118.16
-300507	-221780.62
-478949	-222327.19
-292674	-222893.72
-362649	-223403.02
-415258	-223931.9
-296124	-224495.88
-477478	-224995.64
-291036	-225500.45
-364744	-225841.98
-410820	-226014.16
-290382	-225980.7
-475789	-225644.44
-287742	-225145.08
-363540	-224444.2
-406087	-223706.14
-281916	-223072.23
-473354	-222588.11
-281650	-222471.95
-356488	-222672.75
-403364	-223244.11
-279576	-224136.62
-472057	-225152.77
-281324	-226261.22
-362032	-227202.64
-400035	-227906.0
-271980	-228303.92
-470059	-228290.66
-276742	-228024.39
-354032	-227493.06
-399562	-226882.33
-269197	-226348.31
-468771	-225927.88
-278006	-225822.4
-355159	-225953.23
-400129	-226349.77
-270317	-226954.34
-468844	-227575.83
-276617	-228213.86
-348781	-228656.22
-400182	-228878.5
-266839	-228862.12
-466979	-228529.34
-276497	-228042.6
-347662	-227368.89
-402171	-226645.83
-270145	-225976.22
-467942	-225344.97
-278382	-224914.92
-346436	-224602.53
-401680	-224456.05
-267724	-224473.31
-467087	-224536.05
-279791	-224721.84
-351716	-224889.8
-403886	-225059.56
-266139	-225227.9
-466129	-225290.77
-280487	-225354.81
-344517	-225314.25
-405124	-225220.31
-271536	-225104.42
-468326	-224895.47
-283579	-224728.2
-347228	-224526.28
-404754	-224365.28
-263436	-224293.27
-464767	-224243.7
-285766	-224342.58
-347351	-224493.78
-406696	-224737.77
-271416	-225081.45
-467585	-225415.9
-287506	-225826.5
-352041	-226185.45
-406037	-226515.67
-266760	-226819.25
-466065	-226992.78
-286014	-227137.89
-345967	-227149.94
-407223	-227071.3
-270050	-226932.66
-467074	-226657.84
-283888	-226377.94
-341503	-226020.0
-407066	-225657.92
-269752	-225351.4
-467024	-225044.89
-287857	-224874.6
-350634	-224753.1
-410946	-224719.69
-272164	-224770.84
-466861	-224773.72
-290511	-224778.39
-356517	-224624.77
-413797	-224307.11
-286745	-223814.45
-472407	-223056.83
-294246	-222170.81
-362367	-221115.84
-415229	-220018.64
-283282	-218990.42
-470601	-218025.36
-292681	-217288.05
-359417	-216705.34
-416686	-216306.1
-285258	-216066.92
-470634	-215827.58
-292034	-215613.22
-358727	-215253.06
-417471	-214738.39
-288524	-214080.28
-472231	-213215.47
-298002	-212305.27
-366065	-211328.84
-418944	-210408.97
-291316	-209637.97
-473755	-208972.44
-300661	-208525.06
-361161	-208174.89
-422081	-207909.9
-294997	-207696.19
-473870	-207385.78
-306193	-207039.2
-362620	-206552.0
-425154	-205982.88
-300477	-205402.55
-476862	-204790.75
-307867	-204314.1
-359846	-203931.36
-429681	-203703.03
-306596	-203649.47
-478272	-203653.94
-313537	-203763.5
-362957	-203826.3
-431051	-203824.84
-308450	-203752.42
-479604	-203522.9
-315881	-203262.86
-362439	-202931.39
-430824	-202623.78
-309392	-202424.7
-480731	-202295.95
-320189	-202357.34
-362604	-202513.05
-434491	-202763.61
-314431	-203087.73
-481901	-203352.66
-323170	-203615.81
-361452	-203765.53
-436726	-203835.47
-320346	-203870.44
-484801	-203825.58
-335473	-203838.22
-366947	-203857.4
-439082	-203936.86
-324191	-204099.5
-486545	-204245.5
-348919	-204437.86
-375908	-204558.98
-440661	-204618.25
-326046	-204630.19
-489426	-204527.78
-419498	-204423.16
-427170	-204295.25
-440704	-204243.55
-327178	-204331.81
-491411	-204506.62
-492091	-204827.03
-488327	-205201.12
-437161	-205636.0
-326874	-206076.12
-491895	-206374.45
-486352	-206537.66
-480592	-206473.64
-436491	-206240.27
-321514	-205879.33
-490256	-205363.33
-460971	-204828.39
-457297	-204279.03
-436824	-203827.55
-321161	-203532.61
-488097	-203337.48
-390038	-203332.28
-407010	-203431.3
-441222	-203661.8
-325219	-204032.4
-487481	-204458.84
-364805	-205036.17
-387121	-205693.38
-446530	-206476.66
-333868	-207408.14
-490053	-208393.9
-407972	-209478.25
-420075	-210529.73
-445546	-211519.64
-336226	-212388.0
-488421	-212986.03
-341198	-213359.19
-368942	-213401.0
-450529	-213160.75
-338329	-212715.25
-487551	-212075.66
-338122	-211447.61
-369811	-210853.67
-446491	-210428.78
-334485	-210266.31
-484459	-210322.64
-314979	-210693.78
-366912	-211235.17
-444243	-211907.67
-328876	-212640.25
-487662	-213264.36
-357137	-213804.39
-382101	-214131.97
-441447	-214283.92
-325744	-214311.7
-486676	-214199.48
-349029	-214125.53
-380570	-214077.17
-439946	-214160.42
-327118	-214431.2
-486281	-214813.92
-335796	-215383.05
-366839	-215991.02
-437892	-216610.88
-322028	-217197.14
-485232	-217625.86
-334923	-217983.69
-369680	-218188.11
-437637	-218320.8
-321652	-218458.1
-484576	-218577.88
-331136	-218830.39
-368278	-219134.86
-434731	-219515.36
-316865	-219944.47
-482821	-220275.67
-321037	-220551.81
-362795	-220628.31
-430982	-220537.28
-310006	-220339.2
-480574	-220032.78
-314283	-219844.3
-360906	-219796.19
-426073	-220033.16
-298149	-220635.23
-476207	-221505.53
-304101	-222678.3
-356004	-223916.61
-421880	-225098.55
-292779	-226098.75
-474644	-226731.75
-298671	-227105.58
-353897	-227220.64
-418734	-227329.16
-288254	-227746.62
-473031	-228707.2
-296146	-230625.14
-351271	-233607.02
-417484	-237766.45
-285721	-243042.61
-472302	-249094.14
-296737	-255658.97
-354354	-262186.16
-416436	-268266.66
-283050	-273545.4
-470966	-277668.72
-293944	-280644.0
-351532	-282405.75
-413925	-283148.38
-277481	-283119.78
-468914	-282447.75
-293525	-281415.38
-350251	-279996.53
-411577	-278209.8
-272339	-275983.8
-467786	-273093.9
-293809	-269555.75
-350774	-265253.8
-410777	-260344.92
-271076	-255119.92
-466645	-249868.1
-292933	-245160.69
-347951	-241346.25
-409400	-238828.2
-271363	-237841.72
-467579	-238287.6
-296231	-240062.44
-360081	-242657.22
-409984	-245586.16
-268691	-248315.0
-465861	-250241.5
-290153	-251114.97
-345522	-250659.08
-411214	-248945.16
-272791	-246224.36
-467699	-242762.0
-291702	-239094.1
-343107	-235533.16
-414845	-232449.08
-282801	-230081.27
-470899	-228418.97
-292591	-227537.02
-347550	-227212.42
-415502	-227322.7
-284342	-227741.64
-471148	-228265.95
-293969	-228951.27
-351396	-229689.3
-416177	-230539.19
-280017	-231548.39
-468537	-232616.0
-291989	-233800.97
-354483	-234901.28
-418297	-235819.88
-286413	-236440.03
-471429	-236556.53
-296514	-236221.7
-351626	-235355.92
-419101	-234094.67
-291194	-232632.16
-472751	-231084.22
-299446	-229766.39
-357969	-228750.56
-420371	-228172.73
-291229	-228076.3
-473196	-228302.95
-299494	-228826.84
-355906	-229380.72
-425092	-229825.78
-301311	-230051.08
-475937	-229882.95
-305122	-229410.52
-359311	-228585.12
-426451	-227531.14
-304091	-226391.6
-477601	-225187.55
-309496	-224109.05
-359409	-223109.66
-429049	-222224.19
-307739	-221451.44
-478351	-220652.2
-313874	-219876.03
-362393	-218990.66
-429151	-218009.1
-308202	-216973.9
-479187	-215833.66
-315767	-214746.48
-362252	-213684.02
-427895	-212730.73
-305599	-211960.52
-477789	-211305.16
-309001	-210870.4
-360976	-210552.28
-427872	-210352.03
-306600	-210274.1
-478004	-210200.36
-308099	-210208.34
-360987	-210189.53
-428025	-210151.9
-303186	-210118.9
-476668	-209994.0
-307661	-209874.98
-358970	-209678.83
-425770	-209414.62
-301696	-209125.77
-476152	-208750.8
-301456	-208410.25
-355134	-208047.58
-424420	-207666.14
-301850	-207310.25
-476509	-206927.6
-304130	-206621.88
-357573	-206315.36
-423926	-205997.22
-296501	-205705.27
-474751	-205391.89
-302787	-205183.67
-358199	-205031.22
-423887	-204960.6
-296187	-205031.75
-474643	-205188.16
-302572	-205524.88
-357666	-205922.78
-420511	-206342.03
-292136	-206749.97
-473929	-206995.56
-297111	-207127.47
-355545	-207025.77
-416292	-206715.27
-281879	-206275.84
-470520	-205693.95
-293345	-205176.97
-351095	-204752.52
-411321	-204532.31
-274007	-204626.44
-468533	-204982.95
-290399	-205690.02
-351071	-206594.55
-408399	-207626.05
-265174	-208706.1
-464814	-209617.44
-288429	-210369.81
-344204	-210816.52
-409406	-210972.89
-270182	-210912.83
-466589	-210615.11
-286306	-210288.2
-340509	-209952.36
-410157	-209740.81
-269961	-209760.78
-466207	-209951.0
-288678	-210414.84
-344373	-211024.56
-412149	-211736.12
-281302	-212508.94
-469801	-213178.84
-278112	-213800.06
-326489	-214254.36
-419034	-214561.92
-296039	-214790.12
-473161	-214906.22
-293656	-215081.16
-353681	-215287.86
-422172	-215605.2
-295104	-216098.02
-473832	-216679.42
-301311	-217433.33
-359813	-218228.73
-421564	-219045.05
-297752	-219865.9
-475606	-220563.78
-304261	-221222.5
-359282	-221752.08
-425669	-222201.72
-301906	-222637.97
-476276	-223012.25
-306096	-223464.31
-362082	-223924.03
-426679	-224425.31
-305417	-224979.98
-477614	-225462.6
-308609	-225930.17
-362619	-226240.31
-427521	-226386.27
-306441	-226377.06
-478574	-226129.92
-314156	-225783.25
-363809	-225297.02
-429839	-224773.81
-309732	-224311.75
-479655	-223882.38
-316824	-223631.6
-364254	-223475.61
-431932	-223432.47
-311074	-223487.3
-479871	-223496.22
-318155	-223507.52
-363074	-223377.3
-431940	-223112.39
-309722	-222739.89
-479411	-222197.17
-316092	-221641.39
-361336	-221037.75
-432677	-220481.95
-312330	-220051.52
-480166	-219690.33
-319299	-219512.4
-365889	-219404.97
-431070	-219370.69
-310285	-219394.8
-479253	-219351.52
-314514	-219325.1
-362513	-219209.7
-431076	-219049.77
-309121	-218895.52
-478632	-218688.08
-311401	-218563.31
-363012	-218433.19
-427515	-218326.31
-302292	-218242.4
-476492	-218049.67
-304274	-217812.33
-361066	-217384.31
-424697	-216773.14
-298041	-216002.05
-474644	-215003.7
-296317	-213940.45
-356353	-212774.19
-421493	-211611.42
-294291	-210538.7
-473654	-209510.61
-294082	-208660.6
-357161	-207874.58
-415309	-207161.33
-278496	-206510.61
-469616	-205789.2
-294618	-205091.03
-353587	-204317.05
-410083	-203536.34
-271771	-202835.12
-467934	-202182.33
-289159	-201757.88
-348441	-201508.25
-410822	-201489.72
-270983	-201715.45
-467451	-202035.08
-288606	-202484.38
-343421	-202875.48
-411853	-203167.02
-271820	-203341.45
-467119	-203296.23
-292591	-203188.28
-355313	-203002.61
-414397	-202895.98
-278396	-203023.7
-469139	-203404.78
-291107	-204229.33
-348386	-205421.2
-420138	-206978.53
-295850	-208837.03
-474047	-210772.0
-299306	-212739.72
-358813	-214494.38
-427064	-215955.62
-303612	-217083.72
-476591	-217781.34
-307664	-218206.03
-362437	-218353.34
-430882	-218376.69
-309238	-218424.38
-478191	-218509.64
-311757	-218803.3
-363801	-219231.95
-430636	-219807.61
-310211	-220502.19
-479599	-221154.56
-318669	-221796.5
-367317	-222282.11
-433076	-222621.14
-315589	-222853.56
-481511	-222936.28
-324933	-223036.95
-369436	-223139.25
-434680	-223338.67
-315866	-223705.61
-482036	-224164.14
-328081	-224792.6
-366801	-225452.73
-435174	-226106.58
-316400	-226712.6
-481722	-227125.03
-326723	-227409.25
-368049	-227469.44
-435939	-227361.67
-316243	-227164.11
-481562	-226856.03
-324172	-226608.62
-366769	-226392.22
-434535	-226281.3
-314162	-226321.64
-481538	-226419.14
-325793	-226648.81
-366385	-226880.2
-435171	-227100.55
-316046	-227297.83
-481982	-227357.03
-325217	-227366.97
-365778	-227238.88
-434365	-227018.81
-316067	-226753.86
-481612	-226377.81
-323586	-226010.05
-367586	-225568.86
-433130	-225090.9
-313742	-224599.8
-480422	-224002.56
-314047	-223400.86
-362532	-222699.8
-429511	-221940.53
-305557	-221164.17
-477578	-220301.69
-305514	-219483.64
-363184	-218633.69
-424676	-217806.19
-298649	-217038.45
-475101	-216243.8
-296630	-215528.48
-359482	-214781.38
-417834	-214028.34
-283804	-213283.77
-471480	-212443.53
-291924	-211616.25
-355072	-210699.06
-414404	-209737.39
-278476	-208772.98
-469929	-207729.83
-290193	-206748.11
-354192	-205751.55
-413224	-204811.69
-276939	-203989.66
-469230	-203224.1
-288764	-202663.81
-351691	-202228.31
-417214	-201970.78
-279129	-201927.36
-469277	-201995.0
-292709	-202271.81
-357186	-202626.05
-419849	-203066.33
-286898	-203594.22
-471727	-204094.69
-296731	-204675.94
-355985	-205244.62
-424871	-205861.86
-301379	-206592.75
-476496	-207389.95
-305712	-208402.19
-363145	-209554.03
-427844	-210890.16
-308297	-212420.81
-478803	-214006.17
-314332	-215684.86
-365954	-217283.52
-433773	-218760.12
-316704	-220074.23
-481364	-221096.31
-322821	-221918.8
-369199	-222470.02
-436192	-222835.64
-319114	-223113.78
-482474	-223303.38
-326892	-223586.8
-372269	-223936.33
-436632	-224425.81
-319982	-225091.25
-483381	-225828.6
-332356	-226695.97
-372459	-227547.4
-438669	-228355.25
-321764	-229092.36
-484577	-229636.36
-342316	-230068.88
-375959	-230308.58
-440475	-230412.33
-323108	-230443.7
-485339	-230360.88
-349613	-230300.22
-380499	-230208.67
-441584	-230136.97
-324159	-230117.81
-485903	-230060.39
-365881	-230042.97
-396927	-229967.12
-441598	-229855.42
-323646	-229729.47
-485950	-229509.53
-366268	-229304.11
-395936	-229056.58
-441274	-228831.38
-323868	-228686.06
-485487	-228561.19
-347265	-228569.5
-379291	-228629.52
-439816	-228760.86
-321347	-228967.86
-483802	-229128.77
-330880	-229302.64
-371668	-229360.7
-437223	-229297.19
-321480	-229114.64
-483384	-228716.89
-325589	-228208.48
-371417	-227517.56
-436454	-226704.81
-317587	-225833.78
-482179	-224853.36
-316987	-223898.38
-366169	-222898.61
-432521	-221896.66
-311573	-220919.1
-479634	-219867.53
-306987	-218832.39
-365206	-217700.95
-429728	-216498.61
-306921	-215252.11
-478133	-213886.81
-302312	-212538.61
-363853	-211147.64
-427178	-209798.39
-302946	-208565.0
-476896	-207401.42
-299496	-206451.45
-363954	-205634.31
-427448	-204994.66
-302686	-204548.31
-476739	-204187.6
-298362	-204001.55
-361817	-203862.98
-427401	-203790.67
-302039	-203801.42
-476807	-203809.17
-300084	-203941.3
-360178	-204115.6
-428914	-204395.03
-302130	-204831.78
-476917	-205354.69
-302902	-206087.9
-361407	-206927.06
-430589	-207896.27
-307837	-209001.62
-478326	-210125.72
-305492	-211353.36
-364368	-212557.53
-433157	-213756.14
-315233	-214964.48
-481233	-216096.47
-315838	-217269.05
-370194	-218394.58
-436941	-219520.5
-324214	-220679.19
-484838	-221784.4
-330701	-222928.92
-374157	-224002.7
-439093	-225017.33
-326079	-225970.88
-486659	-226756.22
-343524	-227457.69
-381946	-227986.78
-441345	-228391.25
-327259	-228725.38
-487437	-228944.69
-363764	-229188.45
-402199	-229418.66
-441281	-229712.38
-328696	-230119.12
-489596	-230564.58
-407428	-231123.92
-433214	-231700.39
-440001	-232309.66
-325192	-232946.42
-489714	-233508.66
-430300	-234068.55
-445634	-234570.31
-440368	-235090.34
-325827	-235694.88
-489398	-236349.77
-418642	-237175.69
-434451	-238124.52
-440249	-239230.62
-325203	-240480.78
-489492	-241718.48
-424826	-242923.19
-438557	-243910.98
-440395	-244609.28
-325214	-244944.7
-488818	-244768.48
-411854	-244140.83
-434434	-243015.58
-438909	-241509.53
-325206	-239758.6
-487534	-237816.11
-361055	-235917.77
-393091	-234112.2
-439074	-232532.94
-322279	-231270.28
-484654	-230256.5
-332498	-229566.77
-376538	-229054.86
-434919	-228670.86
-318667	-228356.22
-481843	-227944.38
-312311	-227476.27
-366886	-226823.53
-430601	-226008.5
-309193	-225078.22
-479567	-223982.67
-304787	-222877.16
-364069	-221720.1
-426664	-220593.89
-301297	-219567.08
-476832	-218575.58
-299164	-217741.06
-363098	-216967.9
-426131	-216287.25
-301628	-215716.38
-476504	-215156.69
-298596	-214709.72
-364924	-214269.69
-425799	-213874.73
-299597	-213549.89
-476749	-213207.69
-302075	-212962.75
-361981	-212715.06
-429053	-212503.88
-303666	-212355.33
-477594	-212181.36
-306813	-212094.53
-361412	-211996.66
-430533	-211928.06
-307127	-211918.67
-478920	-211887.2
-310744	-211952.0
-367403	-212021.42
-434026	-212143.83
-315427	-212355.39
-481326	-212580.84
-319407	-212942.98
-374408	-213356.4
-439147	-213871.81
-325855	-214523.61
-485915	-215236.7
-342459	-216119.62
-382177	-217081.67
-442031	-218155.47
-329960	-219355.4
-488874	-220581.45
-423816	-221892.39
-452376	-223186.22
-439212	-224487.95
-330701	-225786.53
-490331	-226975.84
-454691	-228108.92
-471791	-229107.7
-439007	-230033.03
-325481	-230928.39
-490399	-231756.0
-472762	-232647.97
-482995	-233621.81
-439137	-234820.55
-324801	-236348.33
-490206	-238190.22
-476691	-240448.27
-487449	-243050.28
-439183	-245990.42
-325765	-249171.34
-490349	-252351.67
-470574	-255407.61
-483397	-258078.1
-439674	-260238.05
-324761	-261778.28
-490518	-262556.78
-482838	-262661.5
-488569	-262139.84
-439738	-261219.4
-325907	-260144.17
-490835	-259065.34
-488215	-258251.56
-492538	-257787.73
-439994	-257778.42
-324410	-258201.5
-489811	-258839.58
-463676	-259552.72
-472186	-260036.52
-440286	-260089.47
-325094	-259535.66
-487401	-258177.84
-381674	-256078.78
-413721	-253237.02
-438737	-249837.44
-322129	-246120.1
-485178	-242241.66
-335443	-238520.34
-373366	-235049.25
-436119	-231961.72
-316226	-229328.17
-481253	-227038.88
-316179	-225122.9
-372563	-223395.05
-428118	-221792.0
-309209	-220269.72
-478773	-218700.77
-300680	-217184.39
-363399	-215651.03
-421671	-214175.19
-289773	-212834.1
-473738	-211574.61
-294437	-210528.47
-358420	-209606.92
-417795	-208839.28
-284502	-208243.27
-472062	-207713.83
-289925	-207353.7
-356149	-207065.0
-417685	-206890.12
-285587	-206860.83
-472786	-206880.66
-294374	-207043.45
-357810	-207222.62
-424147	-207418.19
-296092	-207620.33
-475036	-207712.86
-298222	-207799.92
-359477	-207806.17
-433431	-207818.1
-312654	-207931.23
-479959	-208134.97
-317121	-208598.33
-369617	-209262.06
-435294	-210157.97
-317097	-211261.86
-482057	-212404.02
-322899	-213588.45
-371883	-214632.17
-440593	-215518.38
-327048	-216279.4
-486023	-216910.66
-354696	-217658.78
-395024	-218637.11
-441244	-220105.84
-329737	-222286.92
-489044	-225234.7
-418365	-229073.5
-440754	-233660.14
-439266	-238866.38
-327394	-244443.53
-489819	-249989.6
-454754	-255250.88
-482356	-259875.45
-439529	-263723.53
-331442	-266719.97
-491281	-268808.78
-484192	-270175.4
-494810	-270950.66
-438028	-271412.06
-324441	-271786.0
-491260	-272150.72
-511571	-272653.22
-512444	-273252.78
-439199	-273953.9
-325693	-274679.56
-490576	-275241.7
-484217	-275612.88
-490198	-275686.25
-439551	-275512.28
-324587	-275168.53
-490248	-274684.34
-477245	-274252.5
-484730	-273949.66
-438887	-273916.53
-324166	-274235.66
-489880	-274850.34
-461887	-275782.0
-473391	-276877.38
-439356	-278022.62
-324560	-279072.0
-487497	-279787.34
-370954	-280087.9
-401127	-279751.7
-439943	-278667.62
-322300	-276781.12
-485164	-273987.66
-339262	-270401.84
-376680	-266023.47
-436739	-260989.08
-316546	-255511.34
-481490	-249743.17
-315821	-244029.42
-367792	-238531.84
-428759	-233478.89
-303586	-229069.4
-477646	-225332.56
-302174	-222395.47
-362726	-220111.6
-423297	-218379.62
-294439	-217059.77
-475029	-215875.69
-296499	-214753.0
-360083	-213454.14
-420164	-211924.12
-291446	-210172.17
-474124	-208152.2
-296555	-206063.92
-362197	-203934.86
-422262	-201931.53
-292696	-200196.02
-474396	-198718.6
-297925	-197645.78
-361132	-196877.45
-426287	-196413.08
-297727	-196223.27
-475384	-196157.08
-301357	-196272.97
-361860	-196444.31
-429381	-196707.11
-305661	-197110.52
-477930	-197608.95
-307582	-198359.45
-364200	-199310.56
-433660	-200528.38
-313783	-202040.34
-480632	-203735.47
-316252	-205664.83
-370360	-207654.98
-437116	-209650.11
-323594	-211581.45
-484928	-213283.78
-336342	-214804.45
-379334	-216039.22
-441016	-217054.5
-329152	-217955.9
-487952	-218783.78
-383961	-219782.98
-418627	-221042.6
-440354	-222767.7
-329256	-225106.77
-490028	-228048.52
-455747	-231662.9
-470249	-235802.92
-438764	-240370.17
-325625	-245176.34
-490242	-249908.84
-479423	-254410.14
-490776	-258442.34
-438229	-261953.1
-325661	-264943.66
-490526	-267404.53
-488236	-269536.38
-498031	-271465.94
-436847	-273401.6
-326079	-275486.47
-490886	-277710.72
-486282	-280089.75
-493197	-282438.72
-437247	-284574.88
-323948	-286277.8
-490160	-287276.44
-472427	-287493.22
-484907	-286845.1
-438469	-285441.88
-325161	-283512.0
-490641	-281297.5
-485183	-279189.97
-491251	-277441.22
-437997	-276275.5
-323077	-275778.75
-489354	-275807.3
-450074	-276191.5
-464596	-276525.12
-438532	-276417.56
-325216	-275503.66
-488234	-273439.38
-397182	-270166.53
-424722	-265661.53
-437726	-260138.52
-322514	-253974.11
-485296	-247552.11
-336865	-241417.39
-379738	-235888.2
-435541	-231224.27
-318021	-227568.78
-482266	-224824.06
-317194	-222914.55
-370966	-221498.36
-433542	-220277.39
-314989	-219015.53
-481322	-217465.14
-314237	-215645.88
-368736	-213499.84
-432196	-211162.69
-312416	-208837.1
-480323	-206634.95
-309871	-204818.72
-368517	-203397.39
-432234	-202426.28
-312889	-201890.42
-480667	-201607.11
-312610	-201558.98
-368541	-201538.86
-430771	-201498.8
-312063	-201428.44
-480320	-201258.5
-308346	-201146.92
-363764	-201071.28
-432351	-201136.98
-311199	-201414.5
-479982	-201827.36
-310589	-202458.19
-366247	-203153.7
-433342	-203885.52
-312596	-204620.03
-480707	-205237.83
-314859	-205850.12
-367805	-206395.55
-433751	-206975.64
-313142	-207686.47
-481097	-208502.19
-317401	-209565.27
-370002	-210774.73
-435815	-212128.83
-316772	-213588.86
-481727	-215000.56
-319683	-216420.16
-371843	-217743.45
-436248	-219051.53
-318321	-220469.47
-482963	-222051.72
-325917	-224061.08
-374958	-226556.88
-438236	-229677.33
-321361	-233483.78
-483868	-237842.06
-328346	-242717.86
-375696	-247820.73
-440407	-252940.12
-326456	-257858.92
-485968	-262282.28
-344469	-266156.22
-386681	-269331.16
-440209	-271844.62
-327201	-273804.06
-487417	-275254.75
-373680	-276420.25
-411992	-277349.97
-440184	-278141.28
-326646	-278851.25
-488410	-279399.12
-413128	-279815.44
-442730	-279979.8
-438981	-279862.1
-325862	-279467.06
-487363	-278775.28
-384772	-277951.12
-421441	-277048.94
-439822	-276201.16
-325499	-275551.47
-487222	-275136.03
-382589	-275076.56
-421614	-275283.88
-439715	-275665.72
-324430	-276109.22
-487544	-276402.3
-372252	-276463.25
-402488	-276074.62
-440369	-275113.22
-323091	-273531.47
-486842	-271253.1
-367116	-268392.44
-398273	-264947.9
-441265	-261009.14
-324122	-256714.31
-486275	-252131.12
-361350	-247477.94
-397350	-242815.03
-440769	-238268.23
-322817	-233983.27
-486349	-230010.19
-360031	-226531.78
-392811	-223536.97
-441955	-221082.11
-323577	-219194.94
-485472	-217762.83
-354538	-216812.9
-394003	-216176.52
-441270	-215787.8
-325245	-215583.39
-487043	-215405.2
-369433	-215292.98
-404994	-215140.28
-441573	-214984.81
-326852	-214865.16
-487497	-214720.38
-392534	-214656.03
-429912	-214596.06
-441262	-214582.61
-329165	-214615.47
-489802	-214587.48
-435615	-214554.52
-457917	-214425.9
-440871	-214258.92
-327700	-214088.03
-489802	-213864.94
-449996	-213707.72
-469272	-213582.05
-440951	-213577.88
-326792	-213725.61
-490720	-213941.45
-475431	-214278.89
-485826	-214639.6
-439740	-215053.19
-325066	-215506.88
-490751	-215900.14
-477277	-216298.05
-484552	-216637.98
-440251	-216990.55
-324752	-217383.36
-490466	-217739.78
-482914	-218127.16
-492369	-218473.02
-439484	-218827.52
-326371	-219198.94
-491081	-219504.58
-483349	-219821.2
-492391	-220107.86
-439978	-220452.36
-324699	-220899.1
-490962	-221385.14
-503590	-221971.61
-506591	-222584.4
-440402	-223246.28
-325318	-223933.48
-490939	-224530.4
-499531	-225082.2
-504060	-225557.39
-439422	-226063.62
-323953	-226716.5
-491414	-227570.0
-513712	-228805.84
-512864	-230482.34
-439841	-232675.75
-324321	-235376.23
-491467	-238418.03
-515525	-241671.83
-514137	-244856.12
-440483	-247730.77
-326570	-250065.4
-491806	-251622.1
-516305	-252356.86
-515111	-252233.56
-438996	-251377.9
-325919	-249988.92
-491691	-248251.23
-516449	-246459.17
-515227	-244778.92
-440311	-243372.6
-326282	-242313.95
-491504	-241530.95
-516507	-240990.19
-515217	-240523.06
-439534	-240022.27
-323998	-239396.56
-491388	-238535.75
-516696	-237497.3
-515372	-236297.86
-439888	-235054.5
-325401	-233892.67
-491641	-232861.02
-516791	-232081.83
-515531	-231530.44
-438952	-231207.44
-325190	-231059.14
-491736	-230936.25
-516817	-230800.67
-515487	-230529.31
-439192	-230123.25
-324237	-229597.9
-491396	-228921.08
-516766	-228214.0
-515509	-227500.36
-439006	-226915.67
-324746	-226539.23
-491437	-226333.7
-516784	-226377.22
-515582	-226616.97
-438781	-227112.08
-325152	-227871.89
-491988	-228816.27
-516806	-230014.08
-515510	-231422.4
-437827	-233119.73
-326092	-235120.78
-492098	-237326.52
-516757	-239750.66
-515531	-242264.2
-436389	-244841.94
-326166	-247394.66
-492541	-249745.0
-516866	-251874.22
-515546	-253677.39
-435626	-255210.81
-327442	-256512.89
-492567	-257559.98
-516812	-258481.83
-515711	-259292.86
-434956	-260118.02
-325517	-261002.17
-492538	-261864.08
-516770	-262732.4
-515474	-263497.16
-435042	-264161.66
-323544	-264682.8
-492019	-264940.25
-516687	-264984.94
-515476	-264785.47
-435434	-264465.44
-324260	-264121.28
-491973	-263765.47
-516751	-263546.3
-515534	-263478.75
-434138	-263668.75
-323874	-264136.06
-492261	-264767.7
-516845	-265561.06
-515472	-266378.88
-434476	-267199.06
-320771	-267958.3
-491318	-268517.03
-516668	-268905.8
-515389	-269073.75
-437971	-269117.6
-326446	-269109.4
-492071	-269038.5
-516806	-269030.06
-515412	-269083.97
-437488	-269294.53
-326949	-269681.5
-492409	-270143.3
-516832	-270691.34
-515511	-271215.12
-436456	-271711.56
-328095	-272142.34
-492892	-272395.03
-516796	-272512.7
-515373	-272454.5
-433877	-272302.97
-325785	-272114.94
-492954	-271866.53
-516698	-271656.1
-515489	-271467.56
-435339	-271354.88
-331996	-271324.9
-493571	-271297.4
-516795	-271300.1
-515617	-271254.28
-434679	-271184.56
-325947	-271091.34
-492609	-270906.56
-516755	-270700.97
-515482	-270448.9
-434231	-270227.22
-323024	-270073.47
-492059	-269935.75
-516747	-269876.88
-515501	-269839.38
-434095	-269856.7
-324291	-269921.9
-492416	-269936.03
-516667	-269936.47
-515381	-269858.84
-435504	-269752.94
-325436	-269643.34
-492698	-269469.53
-516727	-269308.8
-515416	-269127.53
-436739	-268993.7
-326351	-268931.44
-492417	-268866.53
-516717	-268851.0
-515504	-268822.97
-436354	-268824.97
-327241	-268863.94
-492716	-268856.44
-516742	-268855.97
-515512	-268810.62
-435819	-268777.12
-326026	-268773.22
-492411	-268725.34
-516846	-268691.66
-515531	-268621.47
-435492	-268566.3
-326041	-268542.0
-492369	-268477.5
-516779	-268432.47
-515493	-268364.0
-435056	-268324.72
-325171	-268330.6
-492246	-268316.1
-516714	-268333.88
-515487	-268332.53
-435573	-268337.1
-331866	-268347.62
-492857	-268295.2
-516753	-268227.5
-515561	-268100.97
-435401	-267952.38
-325187	-267807.6
-492214	-267625.56
-516689	-267481.16
-515356	-267350.4
-435783	-267269.72
-323063	-267257.44
-491618	-267255.72
-516625	-267308.84
-515399	-267357.2
-437186	-267404.4
-324902	-267446.72
-491599	-267416.16
-516676	-267363.97
-515452	-267251.6
-437493	-267113.03
-323863	-266980.03
-491469	-266824.0
-516622	-266722.4
-515495	-266655.3
-437009	-266659.97
-323175	-266758.0
-491317	-266897.12
-516606	-267124.97
-515360	-267387.88
-437374	-267682.88
-324510	-267999.97
-491688	-268266.34
-516716	-268514.1
-515520	-268684.53
-438280	-268780.4
-324435	-268809.4
-491337	-268724.3
-516542	-268593.5
-515333	-268399.2
-437301	-268183.44
-323858	-267992.2
-491480	-267810.9
-516776	-267722.56
-515471	-267706.34
-436304	-267782.72
-322511	-267956.88
-491212	-268160.38
-516571	-268415.9
-515458	-268647.44
-436664	-268829.62
-330116	-268942.38
-492376	-268920.6
-516723	-268813.44
-515512	-268591.88
-435439	-268294.1
-323963	-267967.84
-491809	-267605.2
-516604	-267298.9
-515487	-267042.0
-435097	-266867.0
-324156	-266794.72
-491859	-266773.62
-516541	-266845.44
-515367	-266952.53
-435540	-267087.94
-324764	-267246.88
-491760	-267371.16
-516591	-267509.03
-515484	-267621.5
-434956	-267724.44
-322919	-267834.16
-491496	-267907.16
-516358	-267998.8
-515381	-268069.78
-435834	-268129.66
-326064	-268188.97
-492191	-268200.16
-516709	-268220.25
-515579	-268215.16
-433476	-268204.66
-322941	-268207.0
-491688	-268180.72
-516443	-268181.62
-515344	-268168.3
-432939	-268147.9
-321242	-268124.9
-491275	-268046.3
-516449	-267964.5
-515451	-267846.66
-433251	-267719.44
-322731	-267614.94
-491622	-267512.38
-516481	-267489.88
-515331	-267527.7
-432391	-267647.62
-322137	-267856.25
-491766	-268088.1
-516464	-268365.0
-515247	-268609.72
-434989	-268795.97
-323694	-268903.3
-491252	-268868.16
-516679	-268741.7
-515454	-268502.53
-433884	-268196.88
-317098	-267881.03
-490112	-267554.7
-516376	-267312.62
-515315	-267146.25
-437361	-267082.56
-321724	-267131.72
-490593	-267230.8
-516453	-267404.62
-515379	-267581.66
-436782	-267743.75
-323204	-267879.44
-491171	-267929.62
-516670	-267945.78
-515432	-267897.03
-436711	-267811.12
-320551	-267720.03
-490410	-267596.22
-516494	-267509.9
-515429	-267434.78
-437233	-267391.2
-321731	-267397.1
-490601	-267408.25
-516597	-267479.5
-515433	-267568.5
-436914	-267683.03
-320797	-267828.2
-490571	-267945.84
-516624	-268073.88
-515387	-268157.34
-436784	-268192.3
-319881	-268181.53
-490279	-268073.38
-516625	-267929.0
-515382	-267728.47
-437059	-267514.22
-321474	-267335.34
-490667	-267182.4
-516552	-267139.22
-515364	-267186.28
-437702	-267337.62
-319824	-267590.3
-489856	-267866.25
-516555	-268174.3
-515376	-268429.75
-437192	-268604.88
-322407	-268686.22
-490605	-268620.66
-516619	-268473.3
-515305	-268237.1
-438128	-267967.4
-322837	-267723.03
-490741	-267499.28
-516533	-267375.94
-515231	-267323.5
-438350	-267345.94
-322221	-267434.0
-490636	-267510.62
-516384	-267598.84
-515126	-267636.6
-438684	-267625.7
-322155	-267584.2
-490382	-267485.3
-513658	-267409.44
-513804	-267345.7
-439818	-267327.44
-320860	-267380.5
-489495	-267454.7
-504571	-267589.22
-506436	-267715.78
-440662	-267813.47
-321061	-267870.4
-486073	-267823.53
-397413	-267750.56
-427565	-267603.56
-440299	-267397.72
-318749	-267184.5
-484627	-266946.7
-348008	-266802.03
-377580	-266704.03
-441644	-266639.3
-318926	-266632.12
-483550	-266624.38
-338614	-266699.06
-371419	-266781.5
-441011	-266847.22
-317654	-266925.6
-482692	-266974.3
-332842	-267096.12
-369011	-267229.28
-440686	-267352.7
-316831	-267487.34
-482851	-267570.84
-340809	-267679.72
-375441	-267733.7
-443654	-267703.84
-322845	-267620.03
-484887	-267450.44
-352496	-267311.28
-378793	-267177.38
-444901	-267066.8
-320909	-267041.34
-484697	-267075.75
-357353	-267267.72
-382187	-267546.78
-445554	-267869.66
-321096	-268230.97
-484682	-268545.16
-364702	-268868.4
-391367	-269115.44
-446728	-269258.7
-324974	-269329.66
-485922	-269297.72
-372734	-269275.56
-397240	-269233.3
-446207	-269182.0
-324841	-269170.7
-487496	-269165.53
-456474	-269240.94
-473092	-269347.03
-447167	-269479.9
-327926	-269650.5
-490122	-269802.56
-516260	-269979.72
-515156	-270133.34
-444144	-270266.25
-325078	-270387.06
-490206	-270446.62
-516639	-270500.66
-515368	-270518.6
-442556	-270526.06
-324151	-270558.12
-490236	-270591.66
-516748	-270702.56
-515458	-270867.97
-441750	-271103.6
-325506	-271412.75
-490668	-271725.2
-516677	-272058.22
-515478	-272333.97
-440513	-272529.22
-324119	-272639.53
-490592	-272623.94
-516635	-272566.94
-515345	-272483.7
-439102	-272451.88
-326978	-272549.53
-491395	-272777.97
-516728	-273203.5
-515368	-273760.1
-437320	-274392.12
-323473	-275013.6
-491003	-275470.06
-516615	-275723.3
-515571	-275681.97
-437017	-275368.1
-322339	-274870.5
-490795	-274278.28
-516656	-273814.34
-515427	-273605.72
-435621	-273785.88
-322489	-274401.06
-491059	-275326.7
-516539	-276415.34
-515554	-277322.25
-436119	-277689.38
-322394	-277150.28
-490990	-275338.75
-516544	-272109.5
-515386	-267390.03
-437705	-261345.11
-323871	-254314.42
-490984	-246712.6
-516650	-239120.34
-515579	-232015.88
-436631	-225843.38
-321362	-220901.77
-490462	-217253.36
-516502	-214880.88
-515475	-213525.89
-436897	-212888.56
-321266	-212643.53
-490499	-212447.75
-516649	-212150.33
-515357	-211626.55
-437122	-210924.27
-320994	-210185.23
-490412	-209541.66
-516591	-209222.27
-515427	-209311.81
-437515	-209865.2
-320297	-210846.4
-490196	-212081.72
-516762	-213450.56
-515564	-214734.88
-436650	-215805.9
-321671	-216602.42
-490360	-217083.92
-516708	-217381.5
-515479	-217578.1
-439492	-217815.19
-319785	-218206.3
-489387	-218744.02
-516714	-219452.77
-515561	-220200.03
-439869	-220872.56
-320836	-221369.88
-489612	-221584.0
-516629	-221599.42
-515486	-221515.14
-439016	-221581.34
-319629	-222119.52
-489591	-223405.81
-516675	-225770.86
-515603	-229346.47
-440452	-234161.75
-320389	-240078.44
-489554	-246734.02
-516683	-253747.02
-515507	-260582.53
-439072	-266770.5
-320874	-271928.44
-489887	-275753.28
-516814	-278215.78
-515647	-279364.6
-439030	-279444.3
-321495	-278795.72
-490179	-277731.34
-516701	-276638.75
-515494	-275732.88
-437846	-275173.6
-323705	-275008.72
-490739	-275129.2
-516806	-275462.8
-515644	-275818.28
-436772	-276071.1
-321446	-276141.78
-490429	-275952.66
-516557	-275587.03
-515505	-275081.4
-435491	-274546.1
-320185	-274089.34
-490525	-273731.7
-516619	-273558.1
-515534	-273514.7
-435772	-273564.0
-323152	-273649.2
-490897	-273652.03
-516653	-273572.75
-515532	-273345.7
-436003	-272990.4
-321374	-272555.7
-490650	-272050.1
-516649	-271588.22
-515536	-271183.9
-435712	-270882.3
-321771	-270705.44
-490760	-270591.25
-516616	-270564.53
-515518	-270548.3
-434850	-270521.3
-319401	-270475.2
-490376	-270355.66
-516561	-270228.38
-515527	-270075.72
-435385	-269937.03
-322402	-269847.03
-490852	-269769.97
-516530	-269760.3
-515536	-269763.06
-436568	-269770.1
-323217	-269768.5
-490916	-269686.6
-516714	-269568.3
-515638	-269364.3
-437273	-269130.53
-322354	-268904.84
-490680	-268646.0
-516637	-268438.6
-515615	-268247.72
-437199	-268137.06
-321727	-268123.0
-490426	-268109.75
-516758	-268134.9
-515647	-268122.06
-435571	-268109.97
-319051	-268107.84
-490143	-268028.56
-516675	-267937.94
-515552	-267794.34
-436870	-267673.1
-320196	-267610.6
-490349	-267534.72
-516924	-267510.53
-515671	-267484.47
-435917	-267507.47
-320405	-267589.16
-490306	-267634.44
-516837	-267690.0
-515651	-267694.94
-438699	-267698.03
-318974	-267719.66
-489701	-267679.16
-516927	-267639.6
-515741	-267554.62
-439215	-267483.47
-318023	-267455.97
-489154	-267395.16
-516700	-267364.72
-515778	-267317.0
-443121	-267303.06
-320819	-267344.97
-489284	-267360.47
-516879	-267402.25
-515766	-267414.34
-444207	-267437.16
-322342	-267487.53
-489384	-267483.4
-516877	-267480.38
-515626	-267441.34
-441842	-267401.7
-321262	-267389.88
-489802	-267358.1
-516916	-267373.3
-515842	-267406.3
-441857	-267470.1
-318938	-267576.78
-489180	-267665.0
-516858	-267773.56
-515614	-267847.4
-443216	-267880.28
-325814	-267875.56
-490505	-267782.0
-516927	-267659.1
-515728	-267482.47
-443560	-267282.94
-327726	-267099.38
-491035	-266909.0
-516861	-266786.66
-515721	-266707.47
-437852	-266689.1
-324045	-266741.72
-491121	-266807.44
-516805	-266926.1
-515670	-267042.12
-436781	-267152.1
-330110	-267255.62
-491911	-267300.3
-516794	-267337.97
-515666	-267332.25
-436549	-267300.66
-321498	-267263.44
-490691	-267179.2
-516773	-267108.0
-515651	-267015.56
-436488	-266918.0
-323615	-266833.03
-491137	-266720.03
-516776	-266640.94
-515773	-266566.6
-435096	-266519.38
-318910	-266521.72
-490122	-266533.88
-516733	-266613.2
-515616	-266718.6
-435092	-266856.44
-318052	-267029.3
-489832	-267176.72
-516734	-267339.47
-515674	-267467.72
-437951	-267565.44
-320902	-267644.03
-490106	-267657.75
-516870	-267666.78
-515851	-267639.75
-438528	-267597.1
-321197	-267558.1
-490355	-267479.72
-516804	-267417.16
-515696	-267330.4
-438589	-267229.84
-322446	-267128.8
-490589	-266983.94
-516927	-266856.84
-515883	-266719.88
-438700	-266598.5
-320716	-266521.06
-490092	-266452.56
-516876	-266455.22
-515634	-266491.3
-439233	-266566.12
-323322	-266681.84
-490481	-266775.47
-516841	-266885.78
-515713	-266958.88
-440571	-266996.47
-331411	-267008.88
-491736	-266956.72
-516959	-266906.2
-515793	-266833.6
-439654	-266767.4
-321496	-266737.16
-490189	-266705.9
-517038	-266736.2
-515718	-266790.44
-438624	-266878.22
-318374	-267011.06
-489342	-267136.62
-511908	-267309.25
-513062	-267487.97
-442999	-267681.6
-323872	-267902.7
-490051	-268096.75
-516575	-268307.7
-515598	-268479.8
-440519	-268604.4
-316802	-268677.6
-487196	-268634.44
-453658	-268540.25
-466007	-268352.9
-444858	-268092.8
-320286	-267816.3
-487315	-267520.6
-469659	-267320.44
-483078	-267215.28
-447532	-267240.66
-326621	-267430.12
-490038	-267726.62
-516609	-268153.4
-515377	-268621.56
-442611	-269081.2
-325590	-269486.84
-490711	-269742.22
-516801	-269870.6
-515664	-269827.8
-444372	-269644.3
-330420	-269374.97
-491578	-269030.97
-516788	-268726.03
-515576	-268472.5
-439650	-268316.38
-327279	-268282.62
-491521	-268314.28
-516829	-268434.2
-515742	-268559.38
-436172	-268656.16
-328946	-268697.47
-491623	-268618.06
-516784	-268470.75
-515722	-268236.6
-436071	-267963.97
-321282	-267708.75
-490485	-267464.9
-516684	-267315.56
-515682	-267232.5
-436591	-267216.97
-323026	-267254.28
-491063	-267259.25
-516576	-267247.5
-515542	-267151.03
-436199	-266971.84
-320394	-266735.8
-490270	-266431.6
-516664	-266165.78
-515637	-265955.97
-436279	-265864.53
-323491	-265935.9
-490994	-266129.03
-516724	-266474.62
-515581	-266884.38
-436425	-267305.7
-320887	-267685.5
-490375	-267924.06
-516672	-268046.38
-515583	-268017.34
-437825	-267883.5
-321767	-267715.4
-490167	-267533.1
-516595	-267451.8
-515454	-267470.6
-436152	-267608.53
-320877	-267850.94
-490537	-268095.7
-516617	-268328.34
-515514	-268447.12
-436572	-268425.2
-322151	-268274.94
-490764	-267993.6
-516625	-267718.94
-515572	-267515.06
-437149	-267495.66
-324409	-267746.66
-491276	-268242.1
-516768	-268992.72
-515610	-269850.38
-437462	-270669.94
-323532	-271288.7
-490881	-271504.4
-516685	-271273.03
-515450	-270541.66
-438919	-269409.1
-321151	-268068.2
-490044	-266713.47
-516579	-265662.44
-515427	-265100.66
-438756	-265176.44
-319987	-265914.4
-489819	-267132.3
-512535	-268620.94
-513611	-269980.1
-439043	-270828.12
-319699	-270827.66
-488799	-269686.78
-496471	-267389.7
-505262	-264009.4
-439872	-259860.31
-321347	-255411.31
-487667	-251148.8
-434898	-247683.27
-458669	-245411.42
-441099	-244625.97
-319524	-245440.7
-485217	-247687.66
-364035	-251153.48
-392512	-255337.34
-443712	-259724.23
-321946	-263861.62
-485137	-267311.5
-369529	-269916.22
-401704	-271530.22
-444076	-272209.62
-321262	-272176.44
-485044	-271645.44
-379016	-270982.9
-411952	-270369.44
-446392	-269957.4
-324424	-269842.7
-485622	-269956.3
-404297	-270288.47
-442675	-270656.78
-445821	-270932.66
-325067	-271045.16
-488017	-270905.16
-461649	-270593.1
-476763	-270123.2
-446146	-269589.97
-326754	-269108.1
-489826	-268711.78
-516621	-268498.12
-515543	-268434.8
-450146	-268499.88
-337664	-268651.16
-492103	-268781.78
-517057	-268890.47
-515806	-268905.25
-440901	-268833.66
-327326	-268711.97
-491425	-268536.4
-516777	-268409.75
-515790	-268334.97
-438493	-268348.78
-325321	-268466.2
-491156	-268622.28
-516763	-268838.34
-515846	-269035.16
-436122	-269191.5
-325462	-269299.8
-491504	-269312.88
-516771	-269303.03
-515752	-269258.75
-435009	-269223.62
-324001	-269236.44
-491344	-269263.9
-516611	-269358.84
-515709	-269465.25
-432501	-269571.88
-322525	-269664.3
-491232	-269678.94
-516475	-269668.84
-515687	-269608.9
-431884	-269541.3
-320127	-269514.34
-490850	-269515.8
-516448	-269625.16
-515512	-269810.34
-431567	-270071.88
-319135	-270391.25
-490553	-270680.0
-516527	-270952.62
-515810	-271139.4
-433067	-271240.56
-320695	-271277.62
-490777	-271231.2
-516534	-271196.7
-515599	-271176.84
-433942	-271214.47
-321357	-271332.72
-490595	-271470.94
-516637	-271645.53
-515649	-271771.2
-434426	-271811.9
-322453	-271744.97
-490982	-271514.53
-516594	-271198.75
-515666	-270809.4
-433927	-270427.94
-321537	-270132.4
-490836	-269916.6
-516572	-269833.4
-515635	-269778.16
-433877	-269637.53
-321669	-269242.9
-491071	-268332.72
-516676	-266752.78
-515672	-264294.56
-434140	-260875.5
-322950	-256515.86
-491193	-251290.62
-516484	-245490.2
-515576	-239389.58
-434089	-233388.5
-320143	-227878.02
-490600	-223129.42
-516511	-219450.1
-515546	-216933.83
-433937	-215618.48
-321501	-215412.38
-490868	-216059.14
-516652	-217359.02
-515617	-219004.6
-433915	-220765.1
-317769	-222472.66
-490087	-223979.53
-516545	-225333.73
-515454	-226572.67
-435480	-227848.38
-317436	-229348.9
-489646	-231200.48
-516727	-233602.77
-515697	-236609.47
-436259	-240252.31
-316479	-244487.0
-489422	-249132.39
-516641	-254051.3
-515469	-258976.58
-438549	-263677.53
-314839	-267940.5
-488071	-271526.44
-511274	-274353.44
-510466	-276316.9
-439091	-277433.9
-309672	-277796.94
-482022	-277490.0
-342875	-276780.4
-368030	-275793.53
-444013	-274689.03
-314857	-273654.44
-481994	-272757.2
-340303	-272159.9
-362541	-271819.75
-444604	-271686.88
-315617	-271735.4
-482318	-271841.72
-343911	-272025.06
-364063	-272161.44
-445541	-272183.78
-316124	-272106.8
-482419	-271889.3
-346097	-271651.1
-362923	-271369.2
-446274	-271056.4
-316067	-270777.53
-481946	-270503.75
-345025	-270338.4
-365014	-270217.38
-446291	-270104.6
-316914	-270017.62
-482441	-269892.78
-347986	-269813.66
-363791	-269716.8
-445987	-269578.94
-314566	-269439.8
-481847	-269261.3
-347486	-269152.2
-363584	-269068.44
-446875	-269000.22
-317019	-268994.5
-482155	-269012.88
-347007	-269155.25
-366037	-269360.0
-447671	-269592.06
-316879	-269864.66
-482174	-270102.75
-351772	-270370.03
-369774	-270581.12
-448881	-270694.03
-322022	-270737.22
-483096	-270675.7
-363436	-270628.7
-391871	-270577.06
-450368	-270546.62
-325540	-270602.66
-485742	-270717.53
-426238	-270963.75
-450375	-271260.66
-448450	-271559.0
-323305	-271828.28
-487095	-271972.34
-476939	-272028.97
-488553	-271954.72
-447487	-271791.9
-324456	-271625.06
-488966	-271485.2
-516224	-271501.88
-515082	-271684.12
-447826	-272053.88
-329587	-272585.25
-490489	-273145.25
-516703	-273679.3
-515518	-274029.3
-442269	-274144.62
-323904	-274010.25
-490061	-273601.38
-516656	-273077.94
-515473	-272535.2
-439983	-272185.75
-323833	-272183.2
-490491	-272519.38
-516563	-273233.16
-515348	-274158.84
-439702	-275155.44
-323542	-276012.84
-490340	-276444.22
-516421	-276370.1
-515443	-275720.56
-439578	-274664.0
-326862	-273466.75
-491197	-272389.7
-516520	-271839.94
-515546	-272049.25
-435566	-273188.9
-321117	-275189.8
-490646	-277670.94
-516429	-280169.88
-515336	-281988.1
-435102	-282466.6
-321296	-281024.38
-490388	-277216.56
-516568	-271009.25
-515474	-262612.34
-437014	-252605.72
-322070	-241817.58
-490519	-231139.7
-516606	-221551.2
-515516	-213788.3
-436807	-208365.0
-320004	-205462.83
-490149	-204857.06
-516690	-206133.42
-515628	-208591.28
-435781	-211510.25
-319811	-214230.39
-490006	-216196.52
-516521	-217188.92
-515540	-217147.38
-436557	-216284.08
-318487	-214962.69
-489817	-213544.36
-516511	-212454.31
-515433	-211911.8
-438264	-212028.88
-319369	-212754.61
-489642	-213842.69
-516594	-215070.12
-515512	-216114.25
-439369	-216761.67
-320317	-216907.72
-489662	-216514.48
-516636	-215761.08
-515665	-214814.67
-439109	-213923.84
-318118	-213312.98
-489036	-213072.8
-516603	-213295.47
-515477	-213876.0
-440552	-214679.0
-318882	-215528.88
-488851	-216193.53
-516511	-216591.88
-515392	-216631.95
-442967	-216370.95
-321709	-215962.11
-489338	-215565.78
-516728	-215470.89
-515602	-215861.11
-441617	-216919.42
-322447	-218755.58
-489522	-221330.72
-516812	-224623.98
-515714	-228458.86
-441129	-232675.3
-319052	-237111.38
-489049	-241565.47
-516704	-245974.55
-515591	-250225.92
-442171	-254295.75
-319193	-258190.05
-488896	-261861.31
-516669	-265355.2
-515646	-268606.78
-442921	-271578.7
-322643	-274219.8
-489593	-276411.84
-516726	-278143.8
-515689	-279335.25
-442241	-279989.88
-323550	-280155.78
-490186	-279860.6
-516654	-279262.7
-515567	-278446.25
-442142	-277548.94
-325103	-276697.22
-490371	-275933.9
-516749	-275368.75
-515620	-274981.47
-438239	-274773.62
-320706	-274723.6
-490103	-274736.44
-516629	-274814.34
-515558	-274871.66
-437606	-274884.97
-319880	-274846.62
-489948	-274701.44
-516637	-274507.62
-515541	-274235.16
-437634	-273909.53
-321187	-273558.1
-490117	-273147.56
-516623	-272746.25
-515557	-272327.3
-438302	-271916.6
-321077	-271543.28
-490049	-271177.06
-516684	-270890.28
-515631	-270656.25
-438969	-270493.3
-329174	-270413.56
-491155	-270361.25
-516656	-270374.6
-515615	-270390.06
-437352	-270393.84
-321668	-270376.56
-490555	-270271.2
-516639	-270131.03
-515535	-269900.88
-436331	-269646.6
-319992	-269408.56
-490366	-269121.56
-516631	-268866.72
-515504	-268606.47
-436808	-268405.8
-321914	-268292.3
-490633	-268174.16
-516624	-268104.66
-515491	-268019.84
-437094	-267967.1
-321011	-267965.75
-490250	-267928.78
-516624	-267918.28
-515594	-267885.22
-438105	-267885.28
-322829	-267944.62
-490467	-267971.25
-516559	-268016.75
-515513	-268015.38
-437617	-268007.94
-321796	-268008.22
-490367	-267923.7
-516506	-267816.06
-515539	-267640.84
-438144	-267468.5
-322692	-267346.47
-490684	-267211.28
-516623	-267146.56
-515533	-267114.4
-438118	-267175.53
-323328	-267353.25
-490751	-267547.62
-516490	-267797.2
-515486	-268020.94
-437668	-268242.25
-322218	-268458.5
-490739	-268560.0
-516674	-268595.12
-515543	-268508.6
-438539	-268362.3
-332213	-268198.62
-491918	-267960.4
-516613	-267736.6
-515542	-267505.03
-437984	-267340.12
-324091	-267277.06
-491154	-267240.72
-516626	-267284.56
-515489	-267350.94
-436999	-267459.8
-325124	-267608.1
-491461	-267716.25
-516542	-267833.9
-515464	-267920.0
-436961	-268003.3
-326109	-268108.72
-491943	-268191.66
-516698	-268317.78
-515544	-268450.5
-436624	-268594.25
-325464	-268746.7
-491701	-268837.1
-516509	-268896.53
-515467	-268867.66
-437072	-268751.9
-329309	-268562.88
-492502	-268270.25
-516696	-267957.28
-515612	-267621.66
-433944	-267314.22
-323002	-267079.0
-491587	-266890.03
-516518	-266808.1
-515527	-266785.7
-436060	-266813.2
-326596	-266875.66
-491986	-266899.8
-516539	-266922.28
-515576	-266899.6
-433875	-266855.12
-323824	-266825.12
-491836	-266794.3
-516471	-266849.06
-515516	-266975.0
-434584	-267193.75
-323248	-267506.4
-491346	-267837.06
-516525	-268196.38
-515648	-268494.0
-435107	-268695.22
-328469	-268776.3
-491909	-268679.06
-516606	-268466.97
-515613	-268132.6
-434611	-267736.44
-318753	-267347.5
-490208	-266971.1
-516466	-266703.62
-515402	-266529.9
-436386	-266465.44
-323212	-266507.97
-491045	-266583.88
-516524	-266715.9
-515463	-266834.75
-436345	-266931.97
-321767	-267011.5
-490683	-267030.38
-516544	-267055.53
-515534	-267063.9
-437696	-267081.3
-323996	-267128.56
-491072	-267159.97
-516517	-267223.22
-515504	-267267.8
-437456	-267294.53
-327996	-267309.53
-492134	-267268.44
-516573	-267237.88
-515561	-267195.75
-435157	-267173.88
-322030	-267201.12
-490942	-267238.28
-516485	-267337.6
-515459	-267445.1
-435967	-267550.06
-326065	-267639.16
-491889	-267645.1
-516562	-267615.34
-515452	-267516.53
-435271	-267384.2
-324725	-267266.88
-491796	-267159.4
-516440	-267157.9
-515395	-267250.7
-435225	-267458.06
-322155	-267779.72
-490943	-268132.03
-516454	-268521.97
-515446	-268856.94
-434448	-269100.38
-323993	-269231.3
-491354	-269190.7
-516557	-269046.9
-515397	-268794.7
-436484	-268493.0
-321731	-268206.38
-490512	-267931.66
-516396	-267756.75
-515419	-267655.75
-437373	-267636.0
-323178	-267692.7
-490869	-267752.2
-516497	-267846.9
-515476	-267920.2
-436800	-267976.75
-324905	-268034.12
-491595	-268056.12
-516501	-268112.9
-515356	-268175.8
-436372	-268259.12
-327254	-268366.62
-492282	-268434.3
-516649	-268495.88
-515655	-268492.75
-435269	-268425.66
-324257	-268308.78
-491467	-268110.16
-516381	-267913.12
-515381	-267713.8
-434907	-267558.3
-323537	-267483.16
-491397	-267450.4
-516511	-267507.44
-515451	-267590.4
-434317	-267677.38
-323132	-267745.53
-491371	-267720.72
-516383	-267647.62
-515294	-267495.56
-434992	-267304.78
-322629	-267129.16
-490994	-266966.56
-516499	-266910.8
-515562	-266945.4
-436495	-267081.75
-322900	-267309.56
-490828	-267539.22
-516433	-267773.44
-515367	-267922.88
-437599	-267961.4
-326319	-267886.16
-491282	-267662.9
-516604	-267379.0
-515512	-267048.6
-436541	-266741.94
-319464	-266524.8
-490102	-266384.75
-516469	-266388.47
-515453	-266485.1
-439656	-266654.0
-322016	-266867.16
-489946	-267035.44
-516646	-267182.78
-515637	-267255.75
-439591	-267273.5
-323102	-267275.3
-490352	-267250.0
-516502	-267288.72
-515432	-267379.16
-438365	-267542.1
-322511	-267779.88
-490393	-268015.03
-516525	-268259.5
-515520	-268428.25
-437516	-268496.8
-323842	-268459.7
-490822	-268275.03
-516531	-268026.47
-515524	-267722.0
-437060	-267430.3
-323307	-267218.5
-490785	-267080.3
-516504	-267089.84
-515587	-267201.8
-436372	-267398.8
-323083	-267647.94
-490668	-267850.0
-516501	-268012.0
-515629	-268062.2
-435332	-268000.53
-321441	-267851.4
-490676	-267597.9
-516471	-267338.3
-515603	-267080.25
-435744	-266878.03
-323019	-266772.0
-490963	-266725.66
-516441	-266787.2
-515475	-266895.16
-434429	-267032.75
-325229	-267180.25
-491551	-267267.6
-516673	-267331.88
-515677	-267333.84
-433222	-267297.4
-323259	-267253.1
-491414	-267177.34
-516541	-267146.9
-515588	-267140.12
-432708	-267180.38
-322702	-267280.5
-491159	-267389.62
-516508	-267551.22
-515630	-267713.66
-432998	-267877.12
-320452	-268042.34
-490717	-268153.2
-516384	-268256.2
-515536	-268307.7
-434422	-268318.34
-320791	-268299.3
-490604	-268205.25
-516538	-268095.38
-515516	-267939.7
-433783	-267764.34
-320281	-267598.1
-490598	-267412.34
-516493	-267276.4
-515617	-267166.25
-437924	-267100.78
-324437	-267092.4
-490999	-267087.44
-516673	-267125.1
-515698	-267149.38
-432938	-267158.4
-319754	-267154.0
-490667	-267089.0
-516340	-267025.62
-515447	-266943.16
-435527	-266879.16
-318839	-266871.22
-490008	-266893.6
-516452	-267010.8
-515526	-267181.03
-438557	-267399.94
-322719	-267653.5
-490334	-267860.84
-516592	-268040.97
-515567	-268125.97
-437177	-268112.72
-323727	-268014.66
-490811	-267804.94
-516748	-267568.47
-515646	-267309.38
-436388	-267084.28
-318883	-266945.16
-489866	-266870.22
-516613	-266924.2
-515667	-267058.56
-437694	-267261.66
-320310	-267512.62
-489686	-267727.16
-516514	-267924.94
-515591	-268042.75
-437269	-268082.16
-319210	-268060.6
-489586	-267948.5
-516714	-267826.66
-515736	-267685.94
-439194	-267566.22
-320517	-267503.56
-489618	-267461.84
-516591	-267494.88
-515666	-267555.1
-438324	-267637.56
-319614	-267737.8
-489637	-267790.88
-516559	-267836.8
-515570	-267831.34
-438334	-267787.38
-318934	-267727.47
-489339	-267615.84
-516641	-267519.84
-515638	-267412.9
-438621	-267316.28
-321216	-267249.66
-489754	-267169.66
-516502	-267129.06
-515640	-267088.56
-438031	-267059.97
-318518	-267058.94
-489294	-267041.06
-516695	-267064.6
-515717	-267095.25
-438584	-267147.78
-320383	-267236.94
-489626	-267311.66
-516573	-267418.1
-515622	-267506.53
-438079	-267575.34
-321254	-267625.94
-489787	-267603.06
-516698	-267556.5
-515839	-267450.97
-439327	-267308.06
-320332	-267158.44
-489538	-266975.1
-516656	-266831.8
-515632	-266707.56
-438906	-266624.88
-321746	-266600.78
-490017	-266583.97
-516722	-266616.1
-515771	-266642.06
-438372	-266656.53
-319919	-266660.47
-489492	-266599.9
-516714	-266531.97
-515803	-266430.94
-438312	-266330.78
-321369	-266271.78
-489818	-266235.16
-516679	-266293.94
-515754	-266421.66
-436847	-266627.53
-319079	-266907.9
-489708	-267184.22
-516711	-267471.1
-515883	-267687.53
-436626	-267809.34
-320319	-267825.06
-490341	-267682.0
-516916	-267447.16
-515947	-267113.94
-437297	-266743.8
-321879	-266405.25
-490967	-266107.5
-517468	-265950.1
-516587	-265922.56
-437172	-266044.88
-320741	-266314.44
-490521	-266650.56
-517178	-267058.75
-516342	-267446.9
-436547	-267777.6
-321817	-268026.84
-490806	-268127.3
-517083	-268131.97
-516240	-268019.7
-435650	-267833.25
-321516	-267623.28
-490594	-267380.75
-516897	-267190.94
-516056	-267034.88
-435936	-266933.34
-320312	-266896.1
-490197	-266862.97
-516741	-266874.38
-515971	-266876.06
-435469	-266872.7
-321656	-266875.16
-490589	-266842.97
-516686	-266842.28
-515834	-266847.44
-434679	-266881.3
-319890	-266962.2
-490221	-267038.28
-516692	-267154.16
-515890	-267254.62
-435420	-267334.06
-321516	-267390.38
-490241	-267367.66
-516672	-267321.2
-515857	-267222.25
-434904	-267102.22
-318784	-266998.38
-489862	-266886.53
-516691	-266840.53
-515803	-266832.2
-434594	-266874.62
-319136	-266971.56
-490014	-267058.25
-516552	-267167.12
-515817	-267239.88
-434684	-267274.75
-320027	-267278.4
-490210	-267208.34
-516639	-267131.62
-515879	-267029.66
-435172	-266937.06
-320952	-266885.62
-490391	-266843.25
-516592	-266870.25
-515714	-266924.72
-434527	-267009.97
-321599	-267124.78
-490612	-267208.34
-516719	-267303.34
-515834	-267364.22
-433396	-267403.88
-320371	-267438.7
-490069	-267432.28
-516576	-267446.84
-515868	-267451.78
-435469	-267464.3
-320290	-267497.75
-490039	-267503.25
-516639	-267529.03
-515752	-267530.7
-433986	-267519.2
-319514	-267507.16
-490210	-267453.94
-516679	-267420.84
-515933	-267378.28
-434562	-267347.3
-318979	-267344.66
-489907	-267323.88
-516680	-267334.7
-515889	-267328.4
-434673	-267307.94
-320659	-267278.34
-490284	-267189.72
-516709	-267100.38
-515864	-266981.9
-433418	-266865.1
-318172	-266783.12
-489703	-266709.38
-516646	-266714.53
-515833	-266767.3
-434807	-266879.5
-319617	-267053.72
-490179	-267224.53
-516702	-267424.03
-515850	-267592.16
-435088	-267723.56
-320335	-267820.53
-490221	-267835.84
-516691	-267831.28
-515871	-267780.75
-435006	-267714.25
-319121	-267661.97
-490039	-267589.53
-516702	-267560.34
-515852	-267536.5
-435483	-267526.1
-320737	-267535.34
-490106	-267509.03
-516639	-267495.6
-515842	-267453.9
-437219	-267398.4
-329586	-267346.44
-490782	-267262.2
-516701	-267208.2
-515857	-267153.2
-436766	-267113.4
-320842	-267103.06
-489894	-267072.38
-516754	-267071.7
-515915	-267056.3
-435498	-267035.44
-320190	-267021.84
-490264	-266970.7
-516724	-266943.53
-515849	-266908.44
-435219	-266884.6
-318143	-266890.78
-489463	-266879.97
-516651	-266905.4
-515864	-266921.75
-437933	-266932.4
-321289	-266943.16
-489695	-266899.62
-516778	-266856.1
-515950	-266775.22
-437254	-266676.62
-317248	-266586.25
-488514	-266468.84
-516679	-266393.2
-515884	-266331.88
-436916	-266304.84
-318945	-266329.34
-489311	-266356.72
-516711	-266437.75
-515952	-266526.72
-437290	-266627.12
-318894	-266745.28
-489265	-266826.3
-516642	-266920.3
-515782	-266984.8
-437791	-267030.16
-320508	-267069.6
-489575	-267056.06
-516811	-267047.84
-515971	-267008.66
-437313	-266955.88
-321833	-266909.53
-490069	-266830.3
-516744	-266782.53
-515896	-266735.12
-437972	-266706.03
-327469	-266710.88
-490247	-266704.44
-516818	-266735.9
-515882	-266759.25
-437257	-266777.22
-320462	-266795.1
-489602	-266758.66
-516768	-266722.56
-515911	-266652.12
-437056	-266569.62
-319309	-266504.1
-489570	-266422.94
-516783	-266396.25
-515931	-266394.9
-436787	-266434.16
-320499	-266522.12
-489859	-266597.3
-516702	-266697.34
-515902	-266762.44
-436139	-266787.28
-320913	-266774.28
-489953	-266675.78
-516703	-266557.38
-515919	-266401.72
-436016	-266248.84
-318834	-266142.72
-489391	-266062.62
-516718	-266082.44
-515922	-266167.56
-436795	-266322.0
-321071	-266536.4
-489772	-266732.84
-516682	-266930.7
-515878	-267059.0
-434857	-267108.53
-317627	-267084.53
-489349	-266948.28
-516662	-266780.4
-515869	-266579.62
-435891	-266403.16
-318983	-266308.16
-489495	-266282.2
-516660	-266401.25
-515904	-266629.16
-434524	-266961.88
-319314	-267379.7
-489898	-267791.56
-516557	-268203.84
-515731	-268531.97
-434981	-268752.8
-321294	-268857.0
-490162	-268793.8
-516739	-268629.7
-515859	-268351.22
-435500	-268006.53
-320675	-267648.22
-489889	-267267.78
-516646	-266953.16
-515866	-266690.03
-434757	-266505.66
-317657	-266418.38
-489376	-266377.62
-516574	-266427.84
-515816	-266515.62
-436281	-266637.6
-320443	-266789.34
-490014	-266908.72
-516757	-267036.0
-515860	-267119.94
-436359	-267164.2
-321612	-267176.34
-490269	-267110.9
-516609	-267027.62
-515751	-266898.16
-436692	-266751.03
-319984	-266618.25
-489747	-266474.1
-516716	-266392.34
-515729	-266347.7
-436066	-266360.2
-319818	-266441.75
-489677	-266536.75
-516644	-266683.84
-515794	-266822.88
-435971	-266946.72
-319501	-267052.06
-489749	-267084.12
-516699	-267099.5
-515906	-267071.53
-436028	-267033.84
-319684	-267026.9
-489611	-267029.66
-516666	-267118.6
-515837	-267266.1
-436038	-267482.44
-319325	-267764.5
-489762	-268037.8
-516694	-268320.16
-515889	-268534.16
-436019	-268659.47
-320336	-268686.66
-489807	-268563.22
-516616	-268354.72
-515850	-268049.12
-436574	-267698.9
-320344	-267363.22
-489804	-267039.56
-516721	-266819.34
-515934	-266685.5
-436051	-266656.0
-318271	-266732.66
-489456	-266843.2
-516660	-267008.88
-515766	-267154.53
-435433	-267263.44
-318110	-267328.9
-489464	-267297.75
-516752	-267233.6
-515924	-267116.6
-437539	-266985.53
-321740	-266881.06
-490141	-266780.72
-516601	-266754.03
-515648	-266764.1
-438362	-266815.03
-322154	-266903.62
-489890	-266961.72
-516688	-267024.12
-515841	-267034.97
-436631	-266999.03
-325447	-266931.3
-491187	-266798.22
-516706	-266673.3
-515924	-266538.1
-436476	-266424.0
-324324	-266357.2
-490790	-266298.2
-516744	-266300.44
-515820	-266317.06
-435031	-266349.4
-320487	-266399.7
-490010	-266414.03
-516785	-266445.8
-515934	-266460.5
-433982	-266479.84
-318292	-266528.7
-489862	-266569.84
-516565	-266663.66
-515834	-266769.2
-438081	-266888.0
-327997	-267016.38
-491456	-267090.38
-516642	-267143.4
-515956	-267125.0
-435347	-267044.2
-322298	-266921.03
-490539	-266727.66
-516790	-266546.47
-515914	-266370.44
-434497	-266243.1
-318903	-266202.03
-489725	-266213.78
-516632	-266334.28
-515859	-266511.12
-433612	-266734.12
-319107	-266986.0
-489892	-267189.0
-516627	-267372.6
-515897	-267479.25
-435739	-267514.8
-318890	-267497.66
-489824	-267395.75
-516524	-267284.88
-515794	-267149.9
-437985	-267023.88
-325757	-266935.38
-491194	-266847.2
-516718	-266817.0
-515842	-266800.38
-436424	-266801.62
-324131	-266823.34
-490964	-266812.56
-516731	-266819.97
-515908	-266805.94
-434153	-266787.34
-318124	-266781.38
-489715	-266747.06
-516669	-266745.38
-515800	-266738.88
-435518	-266740.56
-322304	-266760.94
-490579	-266750.72
-516518	-266762.72
-515824	-266757.8
-439382	-266749.6
-324413	-266756.7
-490541	-266739.2
-516776	-266759.62
-515964	-266784.5
-435694	-266829.75
-323512	-266905.2
-490736	-266958.56
-516750	-267033.0
-515953	-267077.38
-432730	-267092.3
-319594	-267079.94
-490497	-266988.66
-516484	-266876.66
-515869	-266715.84
-438412	-266536.75
-329176	-266375.2
-492186	-266213.22
-516779	-266131.12
-515903	-266109.0
-435882	-266170.28
-326694	-266326.1
-491382	-266519.78
-516715	-266784.8
-515886	-267054.4
-433411	-267311.84
-319486	-267542.94
-490242	-267682.62
-516639	-267778.84
-515822	-267798.84
-434071	-267772.9
-320441	-267741.56
-490377	-267687.72
-516533	-267695.03
-515819	-267742.62
-434829	-267848.2
-322694	-268013.4
-490942	-268166.2
-516664	-268324.84
-515832	-268409.94
-437632	-268397.12
-328537	-268273.88
-491975	-267991.06
-516784	-267622.44
-515931	-267168.44
-433902	-266699.34
-319749	-266293.84
-490247	-265969.25
-516641	-265832.9
-515816	-265874.72
-435074	-266108.28
-318737	-266518.78
-489834	-267006.47
-516732	-267556.97
-515948	-268056.16
-434466	-268447.94
-320416	-268695.2
-490147	-268726.5
-516634	-268599.5
-515894	-268305.06
-435353	-267904.8
-321697	-267470.4
-490582	-267014.7
-516692	-266641.4
-515871	-266343.38
-436089	-266144.88
-320920	-266052.72
-490049	-266000.38
-516652	-266017.56
-515800	-266040.25
-435071	-266064.44
-319623	-266099.28
-490211	-266106.34
-516727	-266159.72
-515762	-266243.38
-436064	-266391.44
-317966	-266630.4
-489438	-266912.44
-516523	-267276.22
-515599	-267653.06
-436185	-268014.5
-311157	-268331.66
-487383	-268513.8
-516620	-268585.8
-515661	-268494.25
-440356	-268255.38
-317359	-267909.72
-488709	-267450.94
-516610	-266987.94
-515616	-266541.3
-443208	-266178.44
-318746	-265963.03
-488397	-265879.06
-515742	-265994.47
-515117	-266260.5
-444236	-266657.62
-321791	-267153.94
-488549	-267644.44
-500957	-268123.84
-508245	-268490.7
-444900	-268706.66
-320292	-268760.25
-488236	-268599.72
-507254	-268302.8
-511354	-267872.78
-445086	-267382.75
-321790	-266921.53
-487481	-266515.7
-480149	-266290.03
-497477	-266239.56
-445633	-266386.25
-320761	-266734.38
-486641	-267195.16
-466342	-267774.03
-491127	-268347.25
-447425	-268849.16
-329359	-269234.28
-490780	-269415.28
-516872	-269429.84
-515636	-269247.84
-444298	-268910.78
-326870	-268481.25
-490526	-267968.47
-516910	-267481.34
-515709	-267025.66
-442250	-266644.94
-319524	-266373.2
-488725	-266169.53
-516875	-266086.03
-515781	-266078.16
-441389	-266149.97
-318319	-266311.7
-488672	-266511.94
-516804	-266800.72
-515739	-267131.44
-440415	-267500.4
-316761	-267900.06
-487994	-268250.7
-505051	-268572.2
-510446	-268786.4
-446530	-268872.78
-323021	-268831.6
-488916	-268616.62
-516706	-268302.03
-515760	-267888.28
-443987	-267435.28
-317400	-267015.28
-487522	-266630.06
-506602	-266373.8
-510659	-266224.34
-448367	-266190.28
-319381	-266271.4
-487334	-266391.47
-516349	-266570.6
-515364	-266740.34
-447969	-266887.84
-320576	-267022.34
-486912	-267099.7
-494436	-267187.66
-502459	-267257.44
-447514	-267325.8
-318094	-267413.44
-486510	-267465.6
-489452	-267529.56
-499946	-267545.8
-448206	-267510.22
-318474	-267440.06
-486668	-267298.38
-504526	-267164.6
-510084	-267025.75
-448907	-266918.3
-321157	-266879.78
-487719	-266865.53
-515306	-266913.2
-515049	-266948.97
-450649	-266937.22
-320370	-266854.94
-487072	-266628.47
-517134	-266315.28
-516057	-265912.5
-449207	-265498.06
-319697	-265181.03
-487029	-265008.66
-516781	-265111.28
-515859	-265488.53
-449185	-266134.62
-320539	-266993.6
-487722	-267893.72
-517127	-268734.22
-516045	-269324.06
-453312	-269550.97
-331124	-269371.16
-489462	-268759.0
-517104	-267867.7
-516179	-266820.75
-446047	-265823.12
-327314	-265077.38
-490197	-264674.44
-516962	-264719.47
-515999	-265123.56
-441657	-265748.66
-323286	-266386.78
-489896	-266739.34
-516757	-266631.75
-515897	-265873.38
-438437	-264439.5
-324112	-262441.47
-490272	-260058.6
-516903	-257665.02
-516071	-255582.64
-436726	-254163.19
-319088	-253674.62
-489552	-254196.53
-516694	-255754.66
-515945	-258131.33
-435910	-261043.86
-318349	-264143.9
-489479	-267019.78
-516659	-269415.3
-515821	-271087.03
-435733	-271969.62
-319604	-272124.9
-489871	-271659.0
-516659	-270840.25
-515941	-269861.6
-435715	-268937.16
-318449	-268217.78
-489473	-267717.84
-516646	-267479.12
-515908	-267393.56
-435652	-267380.9
-320541	-267365.56
-490009	-267244.0
-516671	-267056.28
-515818	-266792.03
-435520	-266523.1
-320622	-266330.97
-490057	-266226.44
-516715	-266291.4
-516012	-266476.22
-435051	-266749.16
-323569	-267055.22
-491024	-267279.53
-516684	-267423.34
-515913	-267428.88
-432390	-267328.75
-320821	-267184.75
-490679	-267019.44
-516550	-266953.66
-515882	-266986.1
-432578	-267129.88
-320050	-267349.03
-490364	-267508.62
-516629	-267553.1
-515963	-267335.38
-433660	-266790.16
-331114	-265902.78
-492102	-264672.56
-516655	-263261.97
-515906	-261790.98
-432509	-260458.53
-320138	-259456.77
-490619	-258882.66
-516639	-258872.38
-516017	-259394.97
-432971	-260397.78
-321049	-261768.23
-490676	-263298.7
-516579	-264876.16
-515752	-266312.22
-431429	-267511.2
-320888	-268425.22
-491261	-269000.28
-516578	-269325.6
-515904	-269422.56
-432614	-269375.38
-320481	-269263.28
-490724	-269092.5
-516584	-268955.06
-515921	-268832.5
-432585	-268750.44
-322417	-268730.22
-491171	-268737.8
-516653	-268847.25
-515922	-269035.9
-431797	-269329.03
-319811	-269739.28
-490467	-270201.0
-516512	-270733.06
-515886	-271241.0
-430998	-271673.16
-321023	-271978.66
-490989	-272060.1
-516481	-271950.8
-515769	-271619.78
-431107	-271119.97
-320351	-270528.34
-490943	-269874.25
-516557	-269291.84
-515816	-268804.4
-431137	-268466.22
-321526	-268293.94
-491386	-268212.84
-516547	-268233.16
-515838	-268258.9
-433020	-268251.12
-333497	-268179.2
-492686	-267979.06
-516559	-267715.25
-515943	-267374.44
-430632	-267023.97
-319784	-266719.06
-490715	-266445.03
-516656	-266284.25
-515879	-266199.62
-429693	-266207.06
-320751	-266290.3
-491053	-266363.25
-516506	-266453.53
-515824	-266504.47
-429884	-266523.2
-321273	-266527.56
-491396	-266482.62
-516531	-266461.8
-515861	-266442.38
-430369	-266447.6
-320892	-266489.88
-491344	-266513.94
-516671	-266566.38
-515847	-266597.5
-430157	-266616.44
-321799	-266637.9
-491384	-266626.22
-516516	-266656.56
-515774	-266707.88
-429905	-266806.62
-318927	-266966.25
-490786	-267126.1
-516677	-267317.2
-515974	-267462.75
-431174	-267542.34
-320879	-267536.7
-490819	-267381.53
-516511	-267141.97
-515863	-266812.53
-431273	-266459.6
-319411	-266160.4
-490783	-265929.72
-516559	-265877.06
-515792	-265989.88
-431774	-266280.62
-319325	-266726.94
-490587	-267215.12
-516611	-267728.16
-515880	-268150.1
-431336	-268430.12
-322226	-268541.66
-491202	-268427.56
-516647	-268171.06
-515936	-267782.5
-432036	-267347.0
-319397	-266945.6
-490541	-266581.7
-516721	-266351.34
-515951	-266225.06
-431966	-266211.75
-321171	-266292.97
-490986	-266375.53
-516606	-266481.0
-515945	-266543.62
-432519	-266569.2
-321562	-266575.72
-491155	-266529.97
-516671	-266514.4
-515968	-266513.16
-432169	-266552.84
-323191	-266646.1
-491517	-266728.53
-516704	-266835.6
-515946	-266903.25
-430431	-266923.6
-323021	-266898.34
-491862	-266781.62
-516741	-266651.38
-516031	-266497.9
-430961	-266366.28
-321719	-266295.0
-491204	-266248.28
-516631	-266282.16
-515962	-266339.88
-430557	-266406.7
-323806	-266462.97
-491749	-266434.72
-516720	-266368.8
-515994	-266240.94
-429357	-266096.97
-321096	-265996.62
-491588	-265943.62
-516728	-266039.75
-515980	-266274.62
-430213	-266662.9
-323272	-267183.8
-491900	-267733.2
-516789	-268289.25
-515987	-268732.56
-428171	-269006.7
-322806	-269075.0
-492011	-268878.62
-516742	-268495.8
-515972	-267945.06
-430606	-267318.66
-320902	-266715.5
-491321	-266168.94
-516703	-265795.06
-516147	-265586.22
-429681	-265554.84
-322823	-265682.94
-492137	-265875.94
-516874	-266133.56
-516032	-266363.4
-430289	-266539.88
-321509	-266654.22
-491621	-266660.6
-516742	-266631.7
-516119	-266554.72
-432242	-266472.28
-323353	-266418.9
-491769	-266361.9
-516895	-266359.1
-516057	-266362.9
-432299	-266372.03
-324780	-266383.9
-492291	-266344.1
-516872	-266306.7
-516007	-266239.7
-431527	-266171.06
-321859	-266129.9
-491673	-266084.94
-516914	-266101.44
-516049	-266140.38
-430184	-266207.78
-322297	-266298.84
-491937	-266351.1
-516917	-266402.8
-515977	-266406.12
-432069	-266374.75
-321996	-266328.84
-491529	-266241.38
-516873	-266187.6
-515914	-266148.72
-433709	-266153.1
-323121	-266218.12
-491582	-266295.25
-517005	-266425.97
-516014	-266551.44
-432269	-266664.38
-322832	-266758.06
-491635	-266777.34
-516879	-266771.97
-516084	-266712.22
-433276	-266627.72
-321155	-266551.34
-491046	-266458.0
-516936	-266420.88
-516070	-266411.88
-434053	-266448.75
-323893	-266539.8
-491793	-266631.06
-516987	-266764.3
-515993	-266886.78
-434197	-266999.75
-322380	-267105.38
-491122	-267154.28
-516912	-267199.72
-516127	-267204.12
-433800	-267185.53
-324624	-267161.44
-491929	-267094.44
-516848	-267045.88
-516079	-266983.53
-434082	-266927.78
-325641	-266895.22
-492507	-266846.72
-516899	-266839.2
-516031	-266834.3
-433834	-266842.8
-325144	-266870.88
-492054	-266868.16
-516842	-266882.44
-516133	-266868.06
-432304	-266836.25
-324519	-266798.8
-492154	-266717.25
-516835	-266655.9
-516024	-266587.12
-431279	-266536.25
-321236	-266524.25
-491419	-266510.84
-516921	-266549.4
-516124	-266593.84
-431971	-266647.12
-324664	-266706.53
-492089	-266717.12
-516921	-266725.72
-516086	-266691.03
-430348	-266632.97
-323994	-266573.16
-492219	-266483.72
-516842	-266430.84
-516087	-266391.38
-430951	-266387.06
-324533	-266428.4
-492374	-266465.4
-516761	-266540.75
-516019	-266601.78
-429952	-266649.97
-325241	-266687.22
-492789	-266670.6
-516897	-266661.38
-516014	-266633.9
-429866	-266620.5
-323176	-266647.72
-492172	-266686.4
-516790	-266795.78
-515987	-266934.12
-430469	-267103.56
-324226	-267295.4
-492132	-267443.6
-516845	-267580.94
-516059	-267650.34
-429423	-267657.72
-320291	-267613.38
-491746	-267482.38
-516863	-267334.53
-515954	-267151.97
-429897	-266971.22
-318782	-266822.56
-491129	-266676.06
-516837	-266595.97
-516054	-266546.12
-429536	-266539.8
-317124	-266584.4
-490972	-266628.25
-516754	-266720.3
-515853	-266815.06
-434363	-266920.6
-318779	-267043.97
-490410	-267133.3
-516864	-267236.47
-516000	-267306.78
-437075	-267350.12
-322704	-267373.84
-490949	-267332.97
-517032	-267284.97
-516024	-267199.62
-437080	-267102.78
-321492	-267023.47
-490755	-266933.56
-516832	-266901.44
-515891	-266897.38
-438491	-266936.9
-322749	-267028.62
-491041	-267116.84
-517091	-267241.94
-516068	-267348.44
-438039	-267435.06
-326769	-267504.16
-492392	-267510.22
-517045	-267511.25
-516108	-267478.94
-438099	-267439.75
-328736	-267420.56
-492712	-267391.88
-517241	-267417.0
-516187	-267461.56
-435790	-267537.03
-328217	-267648.84
-492712	-267745.03
-517147	-267869.16
-516173	-267972.4
-433768	-268060.47
-327307	-268137.8
-492782	-268158.22
-516951	-268173.12
-516149	-268142.4
-431734	-268081.0
-326122	-268000.12
-492732	-267859.84
-516928	-267719.0
-516060	-267546.25
-428955	-267366.56
-325914	-267202.22
-493139	-267025.3
-516847	-266903.12
-516086	-266807.8
-427786	-266761.97
-324408	-266775.78
-492883	-266801.6
-516867	-266882.88
-515972	-266967.16
-427326	-267054.38
-326747	-267139.56
-493467	-267172.47
-516816	-267203.28
-516047	-267195.78
-427181	-267173.53
-326778	-267155.12
-493359	-267110.97
-516888	-267103.16
-516097	-267097.6
-428174	-267110.66
-326427	-267146.2
-493259	-267154.56
-516924	-267182.7
-516071	-267183.62
-426928	-267169.12
-324716	-267148.22
-493202	-267082.97
-516906	-267035.12
-516051	-266973.78
-426334	-266923.47
-321399	-266897.6
-492379	-266853.97
-516951	-266843.72
-516129	-266820.62
-428942	-266791.97
-323927	-266758.66
-492714	-266671.16
-517037	-266581.47
-516116	-266452.38
-430023	-266303.78
-322530	-266154.62
-492296	-265970.1
-516962	-265814.0
-516121	-265655.16
-431336	-265515.25
-323496	-265410.78
-492215	-265302.9
-517104	-265251.78
-516173	-265224.4
-430770	-265243.22
-322642	-265325.78
-492466	-265434.75
-517001	-265627.06
-516078	-265861.22
-431907	-266142.75
-322885	-266467.75
-492177	-266772.75
-517076	-267088.25
-516193	-267352.28
-432348	-267561.03
-326012	-267713.03
-492842	-267762.84
-517192	-267773.53
-516278	-267723.25
-431212	-267651.47
-324835	-267595.3
-492447	-267537.6
-517056	-267553.16
-516211	-267615.47
-431704	-267742.62
-328192	-267938.7
-493497	-268147.0
-517126	-268404.88
-516211	-268653.3
-429029	-268888.9
-325806	-269106.7
-493370	-269253.3
-517014	-269379.2
-516179	-269444.88
-427483	-269469.44
-325456	-269467.25
-493509	-269400.62
-517086	-269330.12
-516194	-269223.03
-427432	-269100.34
-325707	-268976.9
-493549	-268815.6
-517041	-268677.38
-516130	-268529.1
-427610	-268391.4
-325184	-268276.16
-493476	-268140.53
-517047	-268036.84
-516097	-267922.3
-427529	-267808.16
-328592	-267698.22
-494132	-267548.2
-516982	-267413.2
-516087	-267259.6
-425989	-267111.06
-325779	-266986.0
-493935	-266852.2
-516962	-266772.53
-516146	-266713.03
-426927	-266691.06
-326114	-266711.34
-493601	-266724.94
-516879	-266777.97
-516061	-266823.84
-426745	-266871.84
-327918	-266927.6
-494110	-266950.75
-517003	-266998.62
-516189	-267037.2
-426270	-267085.97
-326560	-267153.34
-493571	-267193.3
-516959	-267250.94
-516099	-267275.62
-426014	-267271.12
-326558	-267234.75
-493719	-267119.6
-516996	-266981.2
-516129	-266790.3
-426314	-266580.75
-324690	-266382.75
-493566	-266178.25
-516978	-266041.53
-516114	-265949.0
-426438	-265924.34
-323090	-265974.9
-492926	-266047.94
-516849	-266182.2
-516210	-266320.6
-428473	-266461.5
-324957	-266601.53
-493369	-266690.94
-517056	-266781.25
-516194	-266836.88
-427932	-266879.78
-323577	-266924.7
-492897	-266934.06
-516967	-266963.84
-516187	-266973.88
-428692	-266977.4
-325080	-266981.7
-493037	-266944.16
-517086	-266923.94
-516196	-266889.03
-428061	-266865.1
-322404	-266873.3
-492732	-266880.44
-516979	-266947.6
-516221	-267034.53
-429531	-267150.25
-325025	-267292.62
-493204	-267403.0
-517054	-267523.28
-516066	-267603.6
-429087	-267654.34
-328017	-267688.38
-493829	-267671.78
-516881	-267674.22
-516121	-267673.03
-429471	-267695.72
-336367	-267755.84
-494747	-267809.8
-517026	-267903.7
-516188	-267981.8
-427531	-268040.66
-327985	-268072.0
-493921	-268020.47
-516967	-267939.34
-516149	-267797.16
-426535	-267624.9
-325202	-267454.03
-493469	-267262.88
-516915	-267125.53
-516096	-267017.12
-427075	-266957.62
-326137	-266951.9
-493535	-266944.6
-517004	-266975.8
-516157	-266994.53
-426824	-267008.4
-327083	-267023.66
-494077	-267002.3
-516997	-267008.62
-516116	-267016.1
-426247	-267051.2
-325081	-267127.2
-493507	-267198.25
-516907	-267307.38
-516131	-267399.0
-426461	-267471.1
-328271	-267514.38
-494412	-267477.03
-517072	-267412.06
-516179	-267290.7
-426184	-267148.2
-326436	-267017.44
-493806	-266883.9
-516947	-266821.94
-516162	-266805.5
-426562	-266853.22
-327849	-266962.9
-494109	-267075.12
-516935	-267218.38
-516117	-267328.94
-424905	-267403.97
-326883	-267439.3
-494256	-267393.94
-516889	-267330.25
-516151	-267226.1
-426734	-267118.78
-337087	-267032.5
-495197	-266944.88
-517012	-266913.44
-516202	-266897.53
-424830	-266903.6
-327966	-266924.53
-494300	-266904.94
-516914	-266884.66
-516070	-266820.0
-424292	-266729.88
-326219	-266631.47
-493897	-266500.12
-516851	-266408.34
-516014	-266334.5
-424176	-266308.88
-327518	-266344.62
-494282	-266399.72
-516911	-266517.47
-516096	-266642.3
-423036	-266772.53
-327137	-266896.9
-494447	-266959.53
-516872	-267007.16
-516027	-266999.1
-423347	-266960.06
-326204	-266909.03
-494205	-266819.72
-516946	-266762.56
-516132	-266710.12
-423833	-266686.78
-329273	-266700.38
-494717	-266705.5
-516887	-266746.47
-516095	-266773.6
-422757	-266794.2
-326132	-266809.5
-494263	-266779.16
-516929	-266765.84
-516088	-266746.22
-423186	-266758.34
-328227	-266830.94
-494624	-266941.97
-516923	-267158.16
-516024	-267441.34
-422754	-267796.06
-329675	-268203.75
-495056	-268587.22
-516800	-268958.7
-516036	-269236.8
-421227	-269403.44
-331473	-269440.3
-495334	-269300.22
-516934	-269047.97
-516017	-268673.34
-423569	-268234.8
-331461	-267787.44
-495274	-267340.38
-516894	-266988.94
-516049	-266724.56
-423266	-266578.3
-329481	-266553.44
-495034	-266592.72
-516919	-266721.2
-516016	-266867.4
-423339	-267017.16
-330381	-267150.53
-495052	-267212.16
-516887	-267249.16
-516059	-267225.75
-423122	-267170.9
-329454	-267105.47
-495066	-267006.22
-516964	-266939.5
-516051	-266877.97
-423459	-266845.03
-330667	-266849.78
-495354	-266854.1
-516897	-266909.28
-516082	-266973.66
-423588	-267060.38
-331111	-267169.44
-495472	-267253.53
-516916	-267353.3
-515969	-267417.66
-423297	-267450.94
-330177	-267448.1
-495291	-267365.75
-516947	-267259.88
-516109	-267105.62
-423046	-266945.2
-331112	-266815.4
-495183	-266713.25
-516892	-266723.66
-516017	-266829.22
-420174	-267055.53
-328329	-267394.5
-495132	-267775.22
-516780	-268201.62
-515896	-268577.47
-423567	-268863.34
-334959	-269016.72
-495963	-268972.5
-517073	-268779.88
-516051	-268423.44
-422363	-267966.9
-332259	-267477.28
-495812	-266983.75
-516904	-266598.9
-515957	-266327.84
-421571	-266208.97
-330714	-266240.8
-495747	-266354.97
-517017	-266557.97
-516016	-266756.84
-421777	-266920.22
-331949	-267016.53
-495875	-266991.16
-516944	-266903.72
-516022	-266740.22
-422569	-266556.44
-330061	-266401.34
-495177	-266273.2
-516892	-266248.88
-516173	-266297.4
-422714	-266424.94
-330753	-266610.0
-495497	-266778.7
-516990	-266947.84
-516045	-267048.38
-421451	-267080.94
-331574	-267049.0
-495877	-266927.2
-516904	-266793.72
-516052	-266640.3
-419629	-266515.4
-328439	-266446.53
-495512	-266406.7
-516844	-266449.78
-516016	-266526.3
-424093	-266635.5
-335656	-266762.47
-496469	-266851.03
-516911	-266943.25
-515936	-266997.2
-422759	-267034.1
-332619	-267069.06
-496047	-267076.38
-516979	-267119.44
-516145	-267166.8
-424332	-267237.6
-337705	-267331.28
-496407	-267403.84
-517017	-267492.62
-516145	-267551.16
-422819	-267589.94
-333059	-267610.7
-496130	-267576.75
-517037	-267545.5
-516128	-267485.53
-422646	-267422.9
-332037	-267369.78
-496086	-267293.22
-517001	-267249.56
-516077	-267202.0
-422631	-267169.38
-332753	-267158.47
-496179	-267133.66
-517099	-267150.0
-516132	-267169.84
-422317	-267211.0
-329182	-267276.8
-495429	-267322.7
-516967	-267393.53
-516052	-267441.72
-423131	-267477.72
-330251	-267503.3
-495646	-267480.9
-517079	-267469.3
-516144	-267440.72
-422026	-267424.75
-328627	-267438.12
-495657	-267448.66
-516984	-267505.84
-515999	-267561.78
-423119	-267615.44
-328080	-267652.66
-495349	-267612.88
-517067	-267535.4
-516151	-267378.72
-424657	-267172.75
-329797	-266949.47
-495377	-266708.2
-517056	-266541.88
-515944	-266450.47
-423687	-266477.53
-326759	-266638.44
-494777	-266880.47
-517046	-267222.9
-515992	-267578.94
-423922	-267911.94
-329200	-268177.66
-494949	-268301.4
-516977	-268316.16
-515824	-268192.56
-425980	-267976.8
-326086	-267721.5
-494350	-267437.97
-516966	-267224.53
-516032	-267076.22
-428411	-267023.66
-329156	-267067.62
-494902	-267145.66
-517069	-267274.3
-516027	-267378.06
-429532	-267443.28
-330807	-267461.44
-495079	-267395.84
-517017	-267314.78
-515887	-267207.16
-430892	-267119.47
-331033	-267084.84
-495124	-267078.3
-517101	-267148.12
-516115	-267237.34
-430569	-267332.7
-332101	-267408.78
-495208	-267401.34
-517146	-267346.28
-515969	-267207.06
-426056	-267021.44
-329681	-266830.0
-495392	-266636.78
-516985	-266532.44
-515916	-266508.72
-427222	-266594.6
-331685	-266790.47
-495824	-267035.34
-517100	-267344.44
-516054	-267639.3
-426516	-267900.84
-331877	-268111.56
-495808	-268226.3
-517055	-268303.53
-516059	-268325.2
-425994	-268333.97
-329430	-268361.1
-495389	-268385.9
-517037	-268462.44
-516069	-268544.2
-425374	-268628.9
-332012	-268697.5
-495609	-268691.94
-517071	-268647.06
-516099	-268522.94
-425761	-268348.88
-327146	-268155.06
-494975	-267932.94
-517076	-267762.53
-516094	-267628.56
-427601	-267559.47
-327834	-267559.97
-494844	-267576.97
-517151	-267637.9
-516091	-267678.12
-426890	-267692.16
-328291	-267673.75
-495054	-267582.6
-517139	-267478.6
-516167	-267341.75
-428959	-267209.84
-327061	-267111.1
-494534	-267020.34
-517189	-266991.66
-516225	-266981.62
-428306	-266993.34
-328027	-267017.8
-494816	-267002.12
-517367	-266987.4
-516333	-266934.22
-428537	-266867.2
-328443	-266809.47
-495138	-266739.56
-517530	-266723.9
-516669	-266734.3
-428456	-266788.88
-329782	-266886.75
-495736	-266974.62
-517912	-267082.84
-516899	-267153.8
-426824	-267190.1
-330857	-267191.1
-496366	-267121.56
-517944	-267041.97
-516904	-266930.66
-427069	-266822.62
-332722	-266740.25
-496577	-266658.94
-517800	-266634.22
-516622	-266626.78
-423531	-266649.1
-335099	-266698.47
-496746	-266733.03
-517683	-266798.22
-516617	-266856.8
-421668	-266930.8
-328791	-267030.7
-495862	-267124.2
-517371	-267263.84
-516401	-267409.75
-421924	-267576.16
-330341	-267759.22
-496006	-267914.66
-517354	-268084.44
-516289	-268226.34
-420906	-268358.03
-330599	-268486.62
-496441	-268579.88
-517328	-268691.25
-516277	-268782.5
-420796	-268868.78
-330006	-268945.4
-496216	-268963.47
-517174	-268960.1
-516197	-268887.8
-420027	-268762.62
-331711	-268594.72
-496590	-268364.12
-517216	-268146.28
-516167	-267931.9
-418880	-267769.38
-325733	-267685.5
-495427	-267654.97
-517096	-267725.25
-516152	-267842.72
-421084	-267999.3
-326735	-268168.03
-495277	-268279.97
-517260	-268360.62
-516214	-268357.1
-419432	-268289.5
-322446	-268177.7
-494759	-268006.88
-517072	-267855.34
-516142	-267713.2
-423530	-267618.5
-323782	-267587.84
-494784	-267578.78
-517346	-267627.5
-516238	-267674.78
-423482	-267715.84
-322342	-267738.6
-493701	-267692.8
-517343	-267625.56
-516267	-267510.1
-426984	-267380.84
-317017	-267269.62
-492565	-267156.44
-517375	-267106.72
-516335	-267091.88
-434561	-267126.06
-323741	-267211.0
-493034	-267293.25
-517541	-267405.0
-516464	-267493.06
-437187	-267560.25
-326652	-267612.34
-493641	-267610.75
-517688	-267610.75
-516513	-267582.72
-437584	-267551.4
-328036	-267537.03
-493986	-267507.3
-517627	-267517.3
-516554	-267530.4
-441828	-267560.94
-339952	-267618.22
-496049	-267665.4
-517637	-267751.6
-516601	-267836.66
-434408	-267932.25
-335384	-268042.22
-495896	-268123.78
-517620	-268220.4
-516482	-268287.94
-426242	-268339.56
-332113	-268382.38
-496090	-268383.88
-517333	-268404.38
-516378	-268418.0
-422889	-268454.25
-329675	-268528.94
-496126	-268606.66
-517338	-268734.1
-516342	-268859.9
-422661	-268981.9
-330439	-269080.94
-496255	-269096.22
-517267	-269061.28
-516193	-268929.6
-420370	-268722.9
-336002	-268461.16
-497219	-268134.47
-517327	-267826.78
-516204	-267531.44
-419336	-267293.88
-328051	-267136.25
-496033	-267023.78
-517170	-267001.25
-516180	-267012.94
-419872	-267054.7
-331346	-267110.06
-496542	-267124.25
-517258	-267141.88
-516214	-267125.8
-418747	-267103.5
-329477	-267092.88
-496459	-267066.62
-517103	-267083.78
-516006	-267106.88
-419344	-267145.16
-329931	-267189.12
-496498	-267181.44
-517177	-267158.44
-516050	-267073.78
-418398	-266946.4
-330356	-266791.16
-496685	-266587.84
-517170	-266411.25
-516136	-266244.38
-418488	-266121.03
-328269	-266049.7
-496247	-265985.2
-517192	-265962.6
-516145	-265922.5
-419151	-265864.66
-330981	-265781.38
-496518	-265635.6
-517030	-265492.2
-515934	-265339.2
-418941	-265226.5
-328572	-265188.47
-496364	-265205.44
-517199	-265331.47
-516011	-265511.6
-419357	-265729.66
-328950	-265944.44
-496219	-266069.94
-517099	-266118.78
-515967	-266033.7
-418897	-265841.22
-334853	-265578.6
-497351	-265268.44
-517252	-265031.0
-516116	-264897.84
-419698	-264942.7
-327547	-265197.3
-495966	-265616.7
-517032	-266212.34
-515964	-266877.78
-419744	-267549.94
-327373	-268154.9
-495824	-268591.84
-517150	-268882.16
-516082	-268993.28
-421511	-268983.9
-327296	-268928.75
-495592	-268868.9
-517152	-268931.94
-516139	-269134.6
-422751	-269516.6
-330227	-270068.4
-496199	-270698.88
-517199	-271383.25
-516114	-271993.8
-420726	-272463.56
-331040	-272732.78
-496621	-272728.53
-517167	-272504.16
-516166	-272054.88
-421046	-271456.7
-331264	-270787.1
-496491	-270077.12
-517139	-269439.6
-516019	-268876.1
-419463	-268423.84
-333306	-268086.06
-497117	-267810.34
-517297	-267628.7
-516167	-267483.7
-418483	-267381.72
-329937	-267323.7
-496588	-267274.78
-517106	-267293.03
-516072	-267343.94
-418851	-267443.47
-332781	-267583.34
-497114	-267705.1
-517247	-267832.2
-516089	-267898.6
-416497	-267901.88
-339012	-267832.47
-498458	-267660.88
-517224	-267453.44
-516198	-267203.06
-416407	-266963.84
-332879	-266771.12
-497462	-266614.22
-517182	-266555.6
-516017	-266553.28
-416178	-266610.12
-334549	-266703.62
-497727	-266771.5
-517211	-266840.9
-516062	-266859.6
-415942	-266844.72
-331736	-266806.53
-497307	-266726.2
-517173	-266672.38
-515952	-266622.8
-416235	-266606.7
-333937	-266624.97
-497482	-266635.4
-517212	-266673.16
-516086	-266684.47
-414249	-266677.7
-330899	-266651.1
-497404	-266574.9
-517154	-266513.16
-516020	-266446.72
-414864	-266414.75
-331830	-266433.06
-497446	-266471.06
-517266	-266572.12
-516079	-266678.88
-415485	-266786.56
-332859	-266869.97
-497482	-266874.34
-517207	-266841.16
-516082	-266737.06
-415246	-266601.12
-327814	-266467.97
-496562	-266336.44
-517259	-266293.1
-516055	-266321.22
-417977	-266448.2
-329189	-266667.56
-496631	-266914.78
-517281	-267203.7
-516154	-267450.6
-420279	-267632.12
-333387	-267722.44
-496971	-267670.2
-517302	-267533.2
-516209	-267292.84
-419482	-267002.5
-331211	-266707.75
-497142	-266409.25
-517184	-266197.97
-516035	-266055.53
-419967	-266008.53
-334216	-266058.62
-497531	-266151.7
-517277	-266323.12
-516127	-266511.16
-418727	-266713.03
-332810	-266916.7
-497482	-267067.53
-517250	-267214.25
-516102	-267314.72
-418769	-267387.5
-336216	-267439.53
-497893	-267435.62
-517241	-267437.16
-516106	-267413.5
-416190	-267393.47
-333537	-267391.3
-497846	-267375.25
-517212	-267403.4
-516004	-267442.2
-415214	-267507.06
-332899	-267592.12
-497726	-267643.66
-517259	-267697.03
-516001	-267698.7
-414414	-267657.78
-333801	-267573.66
-497793	-267416.78
-517195	-267255.53
-516047	-267077.0
-414744	-266930.16
-333070	-266844.84
-497912	-266807.53
-517268	-266879.66
-516098	-267020.44
-414852	-267233.97
-335627	-267495.34
-498173	-267736.9
-517166	-267975.78
-515939	-268144.66
-414841	-268244.1
-339483	-268266.97
-498592	-268185.53
-517193	-268063.22
-515927	-267884.25
-413970	-267693.53
-334564	-267514.66
-498197	-267331.5
-517219	-267205.88
-515915	-267102.9
-413089	-267043.12
-334541	-267021.88
-498343	-266999.62
-517072	-267019.84
-515934	-267037.84
-412854	-267068.78
-333655	-267107.4
-498159	-267112.7
-517134	-267126.8
-515876	-267102.6
-412399	-267054.3
-334544	-266978.7
-498246	-266844.2
-517198	-266709.84
-515894	-266552.38
-412362	-266413.2
-332303	-266316.0
-498109	-266245.44
-517192	-266264.47
-515954	-266335.03
-412956	-266467.28
-333272	-266638.25
-498140	-266783.25
-517199	-266917.84
-515855	-266973.12
-412604	-266950.75
-334614	-266845.62
-498624	-266638.0
-517185	-266406.1
-515942	-266151.75
-413126	-265940.0
-332717	-265812.4
-498085	-265763.9
-517113	-265857.38
-515935	-266047.16
-414357	-266329.56
-332926	-266669.2
-497847	-266989.7
-517054	-267300.66
-515862	-267533.2
-415925	-267689.4
-340512	-267768.88
-498329	-267753.75
-517127	-267714.8
-515952	-267642.88
-414259	-267583.3
-333756	-267556.84
-498117	-267538.0
-517114	-267576.53
-515891	-267624.28
-413958	-267688.72
-336067	-267757.12
-498718	-267786.38
-517056	-267824.78
-515733	-267836.5
-412572	-267849.03
-334165	-267872.06
-498487	-267877.44
-517157	-267917.9
-515804	-267948.94
-412771	-267979.78
-336558	-267996.03
-498706	-267949.03
-517084	-267879.4
-515804	-267746.1
-412147	-267577.25
-333937	-267390.06
-498167	-267172.75
-517032	-267000.38
-515751	-266855.84
-412096	-266774.84
-334546	-266761.2
-498314	-266772.97
-517081	-266843.3
-515681	-266911.38
-410761	-266975.62
-335553	-267018.5
-498751	-266999.4
-516970	-266971.16
-515666	-266910.53
-410653	-266861.53
-335269	-266849.12
-498706	-266861.78
-517014	-266963.12
-515640	-267114.94
-410746	-267326.8
-337029	-267573.5
-498950	-267792.75
-517084	-268000.28
-515737	-268130.2
-413465	-268185.03
-346321	-268156.12
-499369	-268023.62
-517091	-267851.6
-515686	-267629.3
-410832	-267406.8
-338438	-267207.88
-499070	-267020.1
-516909	-266901.66
-515487	-266814.03
-408238	-266772.88
-333671	-266765.8
-498810	-266749.03
-517078	-266760.75
-515655	-266756.56
-409929	-266755.94
-335004	-266758.8
-498676	-266735.6
-516935	-266735.97
-515512	-266721.22
-409816	-266709.4
-336043	-266695.0
-498852	-266641.8
-516972	-266596.38
-515624	-266522.75
-409732	-266450.5
-333587	-266391.7
-498456	-266329.16
-516894	-266326.72
-515546	-266354.84
-410222	-266437.8
-334723	-266567.75
-498604	-266696.44
-516947	-266848.56
-515617	-266959.44
-410701	-267027.06
-334084	-267036.34
-498710	-266952.44
-516890	-266836.03
-515613	-266674.12
-411156	-266522.53
-334754	-266418.8
-498696	-266363.88
-516999	-266430.5
-515686	-266586.28
-411820	-266840.2
-338525	-267163.94
-499336	-267485.75
-517051	-267810.9
-515591	-268059.1
-412861	-268220.16
-343964	-268277.1
-499532	-268201.16
-517090	-268059.53
-515689	-267844.97
-410869	-267615.03
-338595	-267403.56
-499294	-267205.9
-517087	-267088.12
-515631	-267015.12
-408791	-267001.0
-336486	-267028.94
-499282	-267048.56
-516991	-267091.75
-515649	-267110.28
-409576	-267121.47
-336942	-267126.66
-499247	-267099.94
-517081	-267097.9
-515709	-267087.0
-408963	-267089.34
-337822	-267098.47
-499371	-267073.78
-516910	-267053.47
-515639	-266992.88
-408897	-266912.16
-336669	-266815.44
-499192	-266684.8
-516983	-266587.03
-515624	-266503.28
-409199	-266471.28
-340138	-266496.3
-499721	-266545.06
-517037	-266650.3
-515524	-266750.47
-407418	-266839.84
-338087	-266890.94
-499779	-266857.7
-517114	-266786.3
-515592	-266654.2
-407556	-266515.0
-338596	-266407.97
-499736	-266347.88
-517034	-266421.34
-515458	-266613.78
-407297	-266949.34
-339979	-267402.88
-500066	-267899.44
-517094	-268424.4
-515528	-268871.2
-411327	-269196.53
-351157	-269346.88
-500621	-269270.28
-517134	-269014.84
-515507	-268573.84
-407228	-268023.7
-340263	-267428.97
-500000	-266831.5
-517104	-266342.0
-515527	-265969.38
-405849	-265760.72
-338563	-265712.2
-500028	-265772.78
-517048	-265952.3
-515406	-266166.12
-406242	-266390.88
-339637	-266584.9
-500196	-266692.94
-517048	-266750.84
-515554	-266723.78
-407017	-266647.88
-339499	-266541.2
-500124	-266398.06
-517072	-266287.06
-515512	-266186.1
-407164	-266127.6
-338762	-266111.75
-499960	-266107.1
-516986	-266154.78
-515492	-266207.28
-407061	-266277.9
-340428	-266353.56
-500101	-266397.6
-517098	-266450.66
-515539	-266470.53
-405889	-266478.66
-337140	-266474.62
-499706	-266435.7
-516967	-266420.44
-515502	-266405.66
-407116	-266431.25
-339389	-266511.75
-499803	-266630.5
-517023	-266843.5
-515581	-267108.78
-406249	-267436.47
-340090	-267798.7
-500377	-268134.03
-517081	-268453.97
-515499	-268684.06
-409281	-268817.53
-349819	-268831.94
-500785	-268699.25
-517096	-268477.8
-515416	-268158.1
-405743	-267800.34
-342063	-267442.12
-500706	-267093.16
-517150	-266832.66
-515513	-266640.94
-404944	-266545.88
-338342	-266536.25
-499857	-266564.22
-516967	-266652.56
-515433	-266738.8
-405708	-266824.22
-340111	-266891.0
-500240	-266902.9
-517027	-266908.78
-515462	-266877.03
-404498	-266840.84
-340876	-266806.34
-500599	-266754.6
-516984	-266738.4
-515326	-266723.7
-404359	-266735.9
-340876	-266770.56
-500401	-266799.53
-517032	-266868.8
-515375	-266937.47
-404494	-267024.4
-343209	-267116.22
-500846	-267173.8
-517026	-267230.03
-515296	-267231.25
-402919	-267189.16
-339668	-267093.06
-500326	-266919.88
-516992	-266733.72
-515246	-266525.88
-403864	-266359.4
-341494	-266272.62
-500653	-266277.72
-517067	-266449.03
-515251	-266757.72
-402235	-267212.44
-339316	-267769.78
-500627	-268342.75
-516984	-268905.2
-515380	-269346.9
-405088	-269628.1
-355856	-269699.88
-502794	-269527.9
-517160	-269174.06
-515373	-268650.66
-404108	-268050.8
-343096	-267447.75
-501039	-266889.22
-517051	-266479.7
-515257	-266216.38
-403020	-266129.0
-339742	-266192.44
-500437	-266338.53
-516976	-266561.34
-515342	-266770.6
-404131	-266947.12
-342674	-267060.03
-500849	-267075.78
-517084	-267052.1
-515322	-266974.6
-402195	-266896.25
-338893	-266838.4
-500585	-266791.16
-517100	-266806.7
-515345	-266840.8
-403704	-266901.88
-340326	-266966.0
-500524	-266988.25
-516999	-267003.4
-515347	-266970.62
-404123	-266918.44
-342780	-266853.22
-500929	-266761.2
-517017	-266700.72
-515311	-266639.16
-403581	-266599.78
-340662	-266572.5
-500704	-266521.78
-517026	-266490.2
-515284	-266441.22
-404049	-266409.5
-342492	-266409.56
-500926	-266439.56
-517024	-266570.75
-515280	-266783.1
-403963	-267102.9
-340307	-267511.06
-500584	-267946.03
-516897	-268403.97
-515311	-268789.72
-405639	-269070.2
-357649	-269193.38
-502961	-269113.94
-517123	-268879.06
-515354	-268482.3
-403374	-268000.12
-342075	-267491.38
-500950	-266995.53
-516957	-266612.94
-515220	-266342.78
-403051	-266220.38
-340406	-266228.03
-500811	-266306.94
-517095	-266460.44
-515309	-266606.7
-403577	-266733.62
-344015	-266814.97
-501110	-266821.06
-516981	-266808.7
-515239	-266761.2
-402183	-266726.4
-341437	-266718.1
-501061	-266719.34
-517016	-266774.06
-515248	-266832.44
-403441	-266900.75
-343741	-266956.53
-501366	-266961.5
-517096	-266959.34
-515331	-266919.66
-402123	-266880.4
-343474	-266852.03
-501416	-266819.78
-516981	-266831.97
-515291	-266841.84
-402332	-266854.34
-342012	-266838.8
-501103	-266747.6
-517100	-266613.75
-515389	-266406.28
-402352	-266176.62
-343271	-265964.84
-501386	-265804.06
-517202	-265796.34
-515392	-265949.62
-401351	-266307.12
-340676	-266848.78
-501174	-267498.9
-517220	-268222.6
-515386	-268886.1
-404548	-269415.3
-358596	-269722.06
-503407	-269738.94
-517121	-269502.72
-515401	-269018.0
-401722	-268385.78
-341791	-267698.8
-501275	-267033.75
-517132	-266521.94
-515379	-266183.5
-402616	-266060.12
-341909	-266124.62
-501180	-266297.94
-517134	-266553.1
-515318	-266777.62
-402963	-266936.03
-343815	-266986.28
-501494	-266898.7
-517239	-266740.75
-515473	-266517.72
-402154	-266305.88
-340751	-266146.03
-501016	-266045.03
-517114	-266059.06
-515278	-266141.28
-403773	-266291.12
-343570	-266469.53
-501342	-266620.3
-517151	-266765.72
-515352	-266858.44
-402442	-266925.3
-344117	-266971.8
-501733	-266986.44
-517136	-267021.44
-515243	-267039.06
-402339	-267053.72
-344079	-267041.47
-501582	-266961.44
-517178	-266850.44
-515244	-266677.53
-402006	-266493.25
-345407	-266334.0
-501832	-266229.62
-517173	-266276.5
-515285	-266476.34
-400992	-266866.3
-341845	-267418.47
-501282	-268052.8
-517107	-268730.06
-515313	-269316.38
-406008	-269741.6
-355814	-269926.53
-502152	-269815.53
