EEG_CH1_RAW	EEG_CH1_BP_0p5_20
-42215	10.246045
-2634210	25.839127
-3433146	45.710358
-1549597	67.76993
2572076	89.34512
2100224	107.77307
-5880214	121.03791
-3893514	128.31932
291788	49.254078
-48576	7.4428368
-4123535	-24.765242
-8114640	-35.60012
-6332389	-17.356419
-1331244	31.530296
-295905	165.55598
-4117756	343.92813
-8056131	543.8822
-6174762	735.7645
-1238828	889.8337
-218303	964.9223
-3864935	961.59766
-7684369	891.045
-5732775	783.7501
-1036389	683.9953
-170098	628.4953
-3743715	663.4605
-7520899	811.47925
-5564874	1069.1127
-981128	1404.5317
-179539	1764.6787
-3777799	2081.378
-7634452	2292.0706
-5794919	2356.1162
-1104558	2268.6143
-259471	2085.8003
-3985784	1872.501
-7992700	1722.9802
-6295414	1728.7769
-1362433	1953.8837
-325816	2430.2385
-4096053	3107.5837
-8096270	3887.5095
-6491816	4635.182
-1424293	5211.1143
-306323	5503.1777
-4027055	5470.7593
-7954748	5154.883
-6309810	4679.211
-1267956	4226.52
-228324	3977.8958
-3839155	4108.591
-7707997	4705.3643
-5966107	5744.356
-1100272	7085.753
-175074	8485.801
-3780239	9680.5205
-7701413	10429.169
-6022640	10587.162
-1074389	10153.96
-208459	9295.833
-3827133	8300.062
-7739441	7526.6177
-6141887	7316.451
-1171317	7900.156
-206426	9326.228
-3828887	11431.797
-7809484	13863.922
-6321499	16153.894
-1353064	17828.691
-280187	18552.092
-3983847	18184.184
-8071660	16870.072
-6832091	15019.715
-1743136	13226.357
-309745	12136.619
-4054614	12270.509
-8153519	13887.049
-7130244	16887.498
-2063198	20805.73
-478467	24933.752
-4178756	28386.203
-7803762	30388.908
-6897958	30468.977
-2166134	28609.012
-784389	25374.602
-4250919	21658.984
-6081932	18629.965
-4784177	17420.492
-622856	18794.367
399316	22996.848
-2420886	29549.84
-2091280	37297.066
-505597	44569.75
3117499	49590.805
3644369	50830.652
948020	47415.773
-13910	39296.55
842905	27645.84
4540118	14514.8125
4580179	2545.7417
1263761	-5542.3335
13343	-7546.39
806388	-2301.4229
4359394	9934.0
4313755	27363.7
1161959	46835.465
11756	64306.055
793768	75513.36
4334323	76738.6
4395002	65513.848
1250777	41138.215
14511	4898.327
809905	-40053.203
4532568	-89150.88
4904741	-137117.81
1566489	-178791.47
24409	-209927.23
738343	-227826.12
3970128	-231697.02
4003265	-222682.36
1169110	-203563.38
14902	-178209.11
547023	-150891.78
3021364	-125584.23
2432748	-105380.336
-876531	-92128.766
-1420763	-86328.81
-2027802	-87282.38
-625627	-93445.99
-1726271	-102892.48
-6626509	-113776.914
-8388608	-124710.22
-8388608	-134971.58
-3745081	-144530.9
-1234437	-153895.27
-4341136	-163831.77
-8173627	-175040.84
-6878375	-187861.86
-1810052	-202078.56
-106038	-216839.0
-2767317	-230828.2
-6479443	-242440.66
-5810326	-250094.39
-1294079	-252538.67
-7737	-249126.66
-2067031	-239897.34
-4388639	-225625.36
-2137719	-207683.66
1642567	-187815.7
2210516	-167853.39
732196	-149437.9
-1330006	-133794.81
823226	-121602.734
5857953	-112972.07
7986719	-107528.125
5524002	-104573.01
1036474	-103286.58
2009633	-102923.25
7417709	-102965.016
8388607	-103204.234
6808888	-103745.555
2105623	-104934.18
3694754	-107231.64
7799824	-111070.445
8017620	-116720.5
6174739	-124197.04
3941303	-133229.73
5937813	-143300.27
6026968	-153742.58
3312432	-163887.75
1240522	-173228.45
-420214	-181471.6
1355453	-188900.84
970245	-196241.36
-55627	-204768.89
-1700529	-215975.89
-3145057	-231544.39
-1155852	-253055.23
-6622	-281726.78
-73534	-318104.03
-1732047	-361901.88
-3181941	-411833.4
-1231462	-465590.66
-29034	-519955.56
-80824	-570989.6
-1995459	-614426.7
-4117373	-646065.3
-2351959	-662232.0
-277939	-660166.1
-79959	-638542.3
-1951438	-597488.44
-3941921	-538757.75
-2027524	-465581.75
-184811	-382351.28
-65924	-294271.25
-1678737	-206719.48
-3129326	-124766.46
-983665	-52663.035
100293	6506.362
-36962	51186.195
-1085382	81238.81
-2013532	97885.766
-592424	103421.695
142737	100752.36
18879	93106.36
-882284	83464.18
-1702132	74295.72
-624549	67323.31
140958	63407.02
55961	62726.902
-785686	64642.56
-1667297	68323.305
-678958	72698.1
393498	76680.8
89368	79614.82
-904791	81000.29
-1821679	80793.7
-770450	79168.695
1189421	76481.69
1370479	73165.5
-458349	69646.52
-2231507	66249.44
-1420401	63221.742
1791481	60724.71
2976993	58861.05
214568	57676.285
-2960769	57220.543
-2370216	57501.773
1766875	58443.465
3791573	59826.02
1471656	61236.535
-1162792	62057.7
-747049	61501.453
2927432	58713.586
4609466	52932.047
1708499	43666.13
-1938675	30913.846
-1475467	15242.305
2916249	-2158.438
4940788	-19562.373
2498576	-34927.805
-1072310	-46181.46
-473893	-51623.92
403445	-50308.297
-119449	-42185.457
-675489	-28291.11
-870286	-10644.681
-730068	8044.3027
-278944	24810.445
-291494	36955.637
-687752	42568.066
-855987	40880.52
-742744	32506.86
-257104	19356.113
-355521	4305.516
-722739	-9331.661
-816977	-18485.61
-751527	-20946.576
-505772	-15889.514
-583564	-4139.2065
-804864	11873.39
-712956	28493.965
-743366	41456.81
-765612	46679.043
-822119	41055.438
-742658	23110.555
-280270	-6622.86
-592986	-45576.34
-820640	-89488.07
-866963	-133058.53
-907563	-170814.3
-900455	-197975.66
-856327	-211286.0
-628599	-209522.39
-585355	-193675.16
-822292	-166756.12
-914238	-133256.4
-862630	-98404.63
-426523	-67309.11
-464931	-44167.953
-811158	-31694.115
-960339	-30730.084
-871580	-40358.73
-340539	-58165.723
-414174	-80759.44
-799142	-104434.81
-980641	-125651.15
-886902	-141712.2
-325864	-150997.38
-395798	-153028.28
-814158	-148423.58
-1042802	-138532.47
-961648	-125125.65
-359415	-110029.29
-423745	-94887.2
-894531	-80900.266
-1064509	-68778.05
-846934	-58701.87
-241654	-50636.824
-26744	-44054.656
-419523	-38339.05
-715269	-32855.395
-499932	-27118.533
-120174	-20719.346
-44093	-13252.614
-441311	-4350.2793
-654447	6105.0835
416458	17988.246
1473936	30930.248
133733	44266.312
-1881551	57057.73
-5199642	68176.71
-4364574	76457.05
-1039797	80986.88
-1686	81096.984
-1952759	76726.05
-5514157	68496.46
-4851401	57728.844
-1282386	46379.938
-31596	36660.848
-2034324	30806.953
-5625185	30672.283
-4913003	37380.168
-1253639	51068.844
5099	70803.64
-1927129	94649.266
-5436019	119936.375
-4607652	143668.11
-1028370	162950.0
53585	175604.98
-1616957	180460.89
-4520613	177602.4
-3513909	168387.42
-675244	155162.17
20643	141089.61
-1380913	129488.7
-3707452	123341.32
-2625073	124817.57
-378856	134871.72
21009	153189.88
-1200239	178366.3
-3176364	208091.8
-2210140	239543.53
-256159	269951.56
-10113	296811.25
-1123811	318495.53
-2819561	334236.1
-1866948	344199.5
-105297	349312.8
67240	350878.7
-832736	350393.03
-2246076	349156.84
-1417833	348089.0
60230	347642.38
83544	347836.72
-800607	348419.94
-2005678	349048.78
-1231752	349477.7
305963	349627.72
354295	349739.0
-591500	350230.16
-1792736	351558.7
-1174403	354049.84
469704	357719.06
907983	362159.16
-90624	366783.4
-1348401	370780.9
-864903	373380.44
691181	374135.66
1212987	372980.34
215697	370522.34
-1035959	367674.25
-587734	365619.62
803125	365645.66
1090421	368568.06
168616	374617.06
-1012149	383106.62
-552228	392723.6
642134	401559.47
631683	407803.4
-167942	409966.3
-1259848	407436.53
-732795	400711.38
359609	391522.2
224721	382472.28
-445554	376552.12
-1461612	376541.72
-913368	384230.56
95587	399847.0
94254	421593.44
-459174	445805.16
-1297742	467105.6
-582502	479299.97
30705	476301.1
10250	453111.75
-464772	406924.9
-1376846	337341.5
-920872	246995.78
6579	140940.38
15159	26193.105
-657239	-89466.17
-1764464	-198317.31
-1149603	-293923.12
-90949	-372242.03
15756	-431908.97
-645469	-474476.38
-1675284	-503897.88
-924842	-525975.7
-5190	-547223.3
-4144	-573885.44
-614839	-611066.25
-1548060	-661663.25
-829087	-726102.3
2168	-802361.06
-5537	-886169.5
-640980	-971931.4
-1668880	-1053154.9
-956584	-1123687.6
-16452	-1178711.4
9293	-1215281.2
-731751	-1232792.9
-2056511	-1232825.4
-1363802	-1218837.9
6441	-1195410.8
21390	-1167313.6
-907228	-1138488.4
-2397432	-1111313.5
-1629425	-1086062.6
52726	-1060760.2
86414	-1031589.75
-857064	-993706.2
-2293352	-942287.5
-1530859	-873717.6
29486	-786580.1
81674	-682284.6
-689628	-565198.2
-1893360	-442051.88
-1132452	-320898.72
48466	-210016.6
16080	-116296.54
-763994	-44190.832
-1931354	5226.4663
-1161224	34269.742
-76876	47855.58
-5009	52561.97
-857144	54975.6
-2419905	60561.367
-1984840	72399.055
-531245	90662.625
-50992	112946.0
-1514368	135331.94
-4696952	153606.66
-4898191	164837.53
-1806122	168634.56
-160142	167836.42
-2149251	168281.89
-6241563	177838.97
-6123121	204685.11
-2312239	255262.58
-97944	332335.1
-1317223	433680.5
-4124056	551665.9
-3503380	673989.5
-542456	785594.1
142511	870979.8
-1224747	917272.4
-3859926	916760.9
-2948109	868656.7
-57290	779514.2
386559	662565.4
-296870	535651.6
-1468797	418068.84
1140602	327276.97
4390187	275863.7
3956677	269401.4
2202312	305605.9
-346374	374951.7
-471192	462604.12
687824	551201.0
730354	624229.06
-82187	668845.1
-1167854	677984.9
-878916	651246.25
138879	594428.9
404186	517959.12
-88808	434347.84
-850704	355288.8
-581989	289495.1
258801	240653.17
515537	207046.36
151322	182074.64
-446821	155824.73
-251096	117371.79
356365	57294.13
480079	-30250.396
172523	-146188.73
-358126	-285857.28
-188841	-439739.34
289291	-595290.56
299776	-738627.2
57668	-857080.06
-430003	-941072.3
-244782	-985885.9
156866	-991991.44
105471	-964702.25
-106462	-913099.8
-570921	-848167.0
-354537	-781012.5
59743	-721067.06
61344	-674734.0
-160786	-644817.9
-688895	-630710.44
-452029	-628957.4
65536	-634629.6
65177	-642571.5
-302259	-648501.5
-1171503	-649991.3
-912427	-646766.0
6731	-640549.0
137686	-634279.56
-138139	-631070.4
-849321	-633582.8
-143628	-643061.4
922727	-658970.94
535548	-679050.06
-223199	-699794.3
-1665767	-717299.1
-1452338	-728169.2
-254086	-730373.5
-4809	-723866.1
-760481	-710680.1
-2475172	-694604.5
-2351446	-680507.8
-773307	-673376.7
-17612	-677243.06
-622217	-694457.7
-2039876	-724888.2
-1585939	-765838.2
-149561	-812277.9
147159	-857602.9
-203587	-894286.9
-1146392	-915231.5
-755430	-914337.4
203979	-887491.6
161866	-832836.4
-224504	-750935.06
-1084324	-645160.6
-783518	-521041.12
62028	-385998.56
111107	-248640.83
-254199	-118048.12
-1112919	-3372.5217
-899538	87261.55
-74829	147455.55
87461	173383.27
-250666	164523.19
-1050240	123738.34
-828191	57417.184
-53817	-25137.227
78169	-112583.61
-219803	-192944.4
-930910	-255278.22
-705287	-290950.62
-42411	-295153.28
66841	-267269.9
-185866	-210807.72
-811211	-132635.7
-599566	-41423.016
-15024	54169.145
73566	147018.53
-135589	232771.5
-686440	310419.97
-472674	382059.28
60380	451276.9
91956	521702.38
-115420	595041.75
-643698	669799.8
-466875	740505.06
55092	797831.7
105724	830216.06
-113017	825763.9
-644913	775420.7
-497513	675296.75
34933	528249.25
119710	344585.84
-116137	141158.42
-685465	-60748.945
-558104	-238735.39
1852	-373109.84
113279	-450044.16
-164933	-464025.1
-807442	-418600.88
-691777	-325781.62
-56504	-203771.97
99281	-73652.56
-252457	44462.57
-1033152	134416.28
-938414	186763.45
-179390	199341.34
37688	177041.62
-434062	129919.086
-1450917	70318.234
-1307112	10156.945
-269816	-41471.35
35739	-79592.414
-595428	-103842.0
-2089599	-117639.15
-2001152	-126500.336
-512337	-136019.06
4881	-150153.6
-959028	-169946.83
-3252009	-193271.52
-3227162	-215643.2
-1052750	-231438.6
-56274	-235553.53
-1217797	-225109.5
-4005111	-200326.2
-4095231	-164760.53
-1548668	-124513.56
-108328	-86719.79
-1345816	-58041.586
-4486801	-42930.79
-4770509	-42648.04
-2075332	-54839.203
-173279	-74156.72
-1335549	-93605.12
-4478879	-106237.195
-4603776	-106762.01
-1716412	-92892.83
159851	-65892.6
-994464	-30035.375
-3978154	8335.21
-4140974	42370.215
-1446522	66362.78
519656	76935.78
-563436	73905.8
-3401456	60010.36
-3575288	40020.87
-1058502	19452.037
972532	3147.0327
23949	-5921.504
-2493204	-7343.24
-2524544	-3304.7324
-212648	2338.94
1540697	5370.331
691273	2383.4744
-1448226	-8151.63
-1387882	-25350.604
547963	-45897.8
1701244	-65025.668
840829	-77952.055
-959538	-81225.914
-862810	-73889.44
766214	-58198.594
1646211	-39537.727
855001	-25489.219
-668679	-24188.746
-579181	-42597.746
775586	-84748.06
1624417	-150620.25
914486	-235773.83
-399271	-331853.2
-361133	-427974.06
714721	-512565.97
1393591	-575574.56
786138	-609941.94
-128655	-612972.8
-117639	-586550.25
639759	-536529.4
1210626	-471514.72
696928	-401335.34
-3692	-335254.06
33874	-280469.5
651594	-241369.84
1133916	-219478.67
667483	-213418.36
23266	-220207.7
39897	-235955.1
623071	-256779.03
1079711	-279511.1
646401	-301666.1
25881	-321655.06
33609	-338274.22
586241	-350395.12
1037424	-356877.1
610556	-356199.03
14206	-347095.12
31436	-328727.12
566083	-301490.38
1012240	-267164.25
571880	-228882.47
6221	-191181.31
32406	-159065.78
569684	-137184.14
1018315	-128972.41
568449	-135383.73
10599	-154925.06
31109	-183663.3
557202	-215665.12
1006629	-244024.95
554187	-262168.5
15395	-265222.78
31139	-250777.47
559576	-219327.03
1027316	-174548.66
570199	-122213.836
11131	-69409.07
30794	-23105.951
577940	11096.263
1078883	29601.342
599989	31311.201
-17052	17742.773
24194	-7510.9805
573846	-39787.664
1108823	-74152.89
618666	-106453.61
-32815	-133827.06
15036	-155054.19
551231	-170344.72
1094927	-180968.48
625016	-188776.16
-27454	-195445.02
3821	-201861.38
525231	-207961.83
1060575	-212642.3
635111	-213891.61
-18347	-209070.38
-47601	-195343.77
482025	-170112.52
1010401	-131469.53
634556	-78411.51
-93210	-11073.135
-169019	69288.555
381621	160330.36
805694	258465.1
484763	359481.2
-84595	458393.25
-105344	549975.3
316412	629199.3
763560	691505.7
459164	733828.9
-32869	754517.56
-38232	753920.4
322883	734306.06
711291	699908.3
431585	656445.75
-17159	610478.7
-23865	568533.8
321013	536108.9
642363	517137.8
402883	513463.06
-34331	524624.4
-44204	548046.9
287516	579388.6
505123	613481.3
313154	645132.2
-64949	669822.75
-66247	684411.56
237027	687311.8
408851	678741.06
241407	660432.0
-62674	635152.5
-40030	606236.8
209294	576843.3
404544	549852.56
237191	527334.06
-34821	510458.06
-10629	499456.34
216838	493914.16
419363	492872.3
241228	495264.97
-23521	499997.22
-1442	505795.7
218873	511563.8
400679	516489.44
230705	519901.03
-19424	521308.6
2847	520209.97
215706	516352.97
368529	509891.84
223753	501226.22
-19638	491036.0
726	479989.28
205853	468856.06
299729	458526.53
190461	449649.84
-42614	442654.72
-15990	437456.6
172524	433718.78
207954	431110.06
138774	429119.72
-70307	427364.97
-33738	425426.4
147108	423209.8
168488	420921.16
110175	418916.1
-76083	417557.5
-34256	417209.22
132387	417926.53
148995	419530.72
97106	421550.62
-74549	423203.94
-30327	423759.97
126568	422429.44
138829	418717.47
89933	412479.56
-69971	403978.34
-23287	393933.06
122873	383406.97
129330	373688.1
87848	366028.75
-68636	361473.34
-24306	360569.7
117204	363318.1
114151	369191.62
79613	377150.25
-71472	385863.97
-26192	393817.72
113038	399638.8
105986	402388.6
73740	401685.72
-65673	397855.97
-20696	391792.12
110312	384874.44
108638	378763.2
74492	375032.53
-49926	374896.8
-8514	378821.44
110908	386404.72
114761	396378.1
79678	406732.0
-41904	414862.1
-3867	418093.78
111386	414083.2
118991	401270.06
83286	379202.8
-36002	348550.8
-1654	311213.5
111389	270034.7
119341	228430.73
84240	189910.39
-32379	157372.14
830	132874.38
110557	117277.48
116119	110189.91
84989	110059.28
-29359	114468.93
2726	120640.92
109833	125792.5
109530	127668.484
83952	124898.4
-27669	117132.02
3651	104857.87
107263	89429.08
102318	72707.96
81365	56692.508
-27219	43161.63
5715	33318.27
108361	27732.605
100488	26329.822
80704	28489.432
-27202	33236.043
6157	39362.24
106677	45773.824
91474	51636.758
78222	56511.36
-31038	60287.367
5596	63068.453
104286	65152.844
81839	66910.76
76312	68689.086
-32439	70701.86
4326	72936.95
99518	75252.336
71738	77436.63
75441	79291.64
-32454	80441.414
3431	80801.84
94001	80248.17
63338	78749.76
73596	76370.91
-31706	73020.68
4627	68834.625
92903	63846.52
61902	58126.33
74364	51822.95
-27156	44950.938
8013	37800.844
94968	30618.201
63301	23715.54
75852	17456.248
-21852	11988.747
12476	7604.376
95233	4378.1396
63054	2293.4219
75395	1251.5282
-21177	900.3593
11940	1073.7251
92546	1503.9937
59115	2001.6342
72619	2486.0903
-20586	2785.8276
13872	3025.9146
89897	3263.552
48856	3592.5427
63006	4106.592
-18251	4671.55
17669	5333.6787
88921	5982.857
49498	6514.4194
65290	6801.8037
-15695	6790.231
18989	6438.894
86913	5785.9897
50933	4958.7437
68626	4113.4556
-13486	3451.7307
20086	3105.9197
86976	3182.026
50096	3747.4243
69991	4802.8994
-9741	6313.778
20838	8140.9316
88291	10146.683
54041	12212.103
74581	14247.136
-5073	16210.116
21856	18017.922
90323	19646.098
58370	21102.412
76466	22434.064
-1946	23697.824
23662	24857.398
92289	25908.879
62518	26841.645
75435	27756.682
-1299	28537.57
23504	29251.41
92501	29887.92
64832	30444.646
76069	31008.045
484	31459.646
24360	31802.285
91830	32121.916
62976	32443.531
76255	32691.379
2464	32753.268
25471	32642.408
90538	32468.76
60714	32308.246
76128	32140.729
4103	31928.521
26571	31712.654
89093	31609.34
59278	31670.256
76691	31812.186
5141	31949.709
26156	32031.672
91175	32081.223
62946	32089.758
75865	31956.19
5259	31624.8
25723	31099.01
91004	30464.875
63965	29791.598
75829	29077.47
6524	28322.064
25616	27561.748
90597	26868.543
65518	26270.465
75953	25713.283
6789	25127.557
24871	24496.506
91156	23855.152
66523	23226.936
75349	22584.166
7492	21914.29
23651	21265.709
90040	20733.885
68873	20389.635
74884	20227.18
7872	20232.629
21895	20407.238
89614	20777.037
69827	21331.715
75357	21979.873
8444	22655.775
24564	23303.664
90046	23925.744
66538	24511.744
76076	24988.791
10993	25343.06
26746	25548.627
88418	25637.674
62084	25624.703
75906	25456.738
12828	25141.58
28977	24671.613
87129	24099.871
57548	23472.95
75593	22782.932
13989	22087.707
29623	21425.684
86729	20881.42
56829	20514.332
76228	20305.928
16340	20274.418
31489	20392.787
85331	20660.604
53666	21047.639
75496	21457.475
16575	21852.926
32386	22179.037
84204	22443.803
50963	22659.512
75275	22796.637
17628	22901.496
32134	22997.676
85476	23155.795
54623	23426.24
75959	23788.23
17483	24265.418
30133	24832.902
87205	25491.645
60237	26220.652
75835	26941.098
16498	27629.604
26583	28242.266
87914	28778.252
63995	29241.803
76079	29600.648
17983	29879.066
27678	30083.049
87492	30251.816
62138	30417.348
76062	30559.328
18738	30696.854
28808	30819.836
87510	30942.959
60789	31073.031
76048	31166.588
19815	31226.127
28646	31234.588
87057	31208.156
60753	31164.111
75614	31076.584
19583	30968.758
27661	30842.602
86774	30729.426
62011	30656.61
75218	30601.975
19873	30585.822
26196	30598.225
85884	30652.926
63825	30757.16
74434	30870.162
18516	30996.129
21224	31112.025
84285	31222.484
67224	31332.748
73342	31409.06
18058	31466.414
16318	31496.367
79753	31517.408
68936	31546.05
73299	31558.965
17674	31578.496
14661	31594.586
77494	31621.87
67769	31667.262
72381	31697.186
17369	31726.229
15107	31734.07
77243	31730.53
66973	31721.6
72987	31677.566
19081	31623.371
16139	31548.424
78296	31475.482
66455	31423.945
73344	31375.371
19988	31362.533
18111	31373.84
80086	31425.387
64890	31523.984
73168	31632.03
21758	31759.537
21264	31871.254
81890	31962.227
63449	32026.182
73869	32020.799
22966	31963.744
23519	31838.982
83629	31669.764
63387	31485.074
75033	31278.896
24339	31099.941
22710	30952.838
83054	30865.281
64748	30854.135
75181	30886.922
24683	30973.1
20365	31073.223
82114	31170.877
65383	31248.895
74202	31258.346
24854	31212.24
19246	31094.3
81379	30923.162
65683	30728.607
74689	30513.018
25576	30332.096
22014	30197.373
82708	30137.324
63539	30171.166
75076	30271.705
27894	30451.176
26651	30672.127
84054	30919.088
59668	31177.533
74514	31399.715
31109	31595.74
32689	31742.008
83802	31850.766
52079	31942.809
71814	32001.676
31738	32063.63
37465	32120.592
82983	32190.44
48076	32287.668
71558	32378.52
32294	32477.988
38101	32558.7
83220	32622.562
48686	32676.24
73436	32686.605
33084	32676.555
34018	32635.56
84775	32579.805
55286	32531.402
73601	32471.191
32262	32427.14
28958	32389.645
84788	32366.361
62034	32367.0
73831	32361.262
31134	32363.273
23806	32352.117
83403	32325.045
64864	32286.781
74240	32208.318
30821	32107.785
23182	31970.4
82294	31801.098
64376	31612.982
74171	31385.836
31678	31144.826
24886	30879.922
82436	30600.012
63201	30321.209
73283	30023.715
32707	29731.842
25818	29437.281
83042	29149.414
62948	28885.986
73933	28629.135
33553	28405.504
27478	28209.736
82922	28053.184
62980	27953.877
73670	27891.877
33986	27887.389
27601	27926.484
83319	28008.447
63913	28137.941
73535	28281.412
33216	28446.902
20551	28614.367
80253	28777.76
68121	28943.523
73172	29088.516
30797	29232.45
14359	29372.1
74966	29515.643
70414	29680.906
73265	29853.482
30986	30053.654
14366	30273.04
74269	30509.047
68454	30763.744
73214	31005.482
32589	31239.729
21313	31444.146
79443	31609.955
65260	31740.768
73563	31810.129
36463	31835.674
29464	31808.656
81966	31738.287
61692	31645.01
73140	31515.775
42356	31379.742
44997	31233.295
81978	31095.064
42458	30990.936
40264	30909.695
33677	30871.29
49641	30867.209
81463	30911.838
29824	31024.842
14801	31186.662
29392	31397.957
53581	31633.83
80235	31892.885
23378	32177.465
7616	32451.766
29972	32702.512
58244	32896.793
81483	33033.31
19988	33122.43
4968	33142.07
31884	33097.8
60978	32982.9
81509	32824.258
19039	32659.74
5008	32489.61
32524	32334.887
61473	32199.217
82986	32108.842
19776	32093.475
5254	32135.008
33959	32229.426
63638	32354.453
82977	32509.861
18868	32701.566
4930	32893.66
35436	33071.965
66711	33211.582
82523	33319.0
16435	33411.96
5201	33469.57
38658	33494.35
70843	33476.574
81909	33435.52
14546	33397.004
5110	33343.53
39441	33278.566
72502	33191.94
82581	33103.0
14769	33038.996
5082	32985.152
39006	32947.92
70971	32920.684
84501	32921.523
16912	32974.37
4944	33056.234
38444	33159.117
69873	33261.285
85633	33364.746
18784	33483.51
4904	33590.77
38195	33681.58
68388	33749.18
86238	33813.758
21098	33911.12
5021	34032.4
37538	34178.258
67684	34336.14
86524	34505.727
22849	34690.426
6905	34843.26
37925	34928.285
67178	34907.29
86624	34772.16
23189	34541.62
5674	34207.555
37398	33790.234
66592	33316.164
86136	32838.45
24659	32421.826
7859	32079.785
37750	31826.123
65250	31652.53
86241	31557.08
27345	31542.242
11180	31567.342
38023	31614.777
64506	31672.31
86554	31764.629
29133	31945.281
14090	32235.844
38748	32675.176
63703	33278.793
86885	34056.973
31511	34999.266
18841	36016.715
40869	37006.684
62925	37832.0
87154	38367.68
35856	38515.03
27002	38166.332
42470	37283.535
62634	35872.836
88368	34016.16
43334	31858.482
60523	29531.65
53335	27215.523
61083	25060.777
88199	23202.615
48122	21745.633
71430	20694.676
58519	20041.492
59157	19716.04
87955	19634.238
52439	19716.725
74106	19846.994
61622	19967.592
58629	20030.066
88379	20028.043
57041	19994.31
75474	19936.895
62516	19907.3
56579	19930.771
88574	20029.1
63855	20218.6
75927	20462.336
60770	20747.41
54501	21030.768
87163	21281.875
68227	21489.018
76126	21623.875
59640	21708.35
53746	21750.701
86547	21778.28
69091	21829.24
75863	21907.348
60843	22040.705
54349	22218.883
86414	22430.639
68934	22667.197
75608	22884.018
59292	23072.01
53245	23205.842
85177	23280.28
70961	23313.408
75459	23300.893
59528	23275.0
52579	23250.486
84884	23245.92
73523	23285.21
75168	23350.203
58709	23442.115
52389	23538.467
84436	23621.648
71754	23689.045
73355	23711.393
58796	23696.258
52238	23644.426
84110	23571.879
70186	23511.973
74236	23464.873
59807	23455.262
52055	23483.53
83833	23546.828
69660	23646.941
73416	23746.234
54956	23835.03
38023	23890.074
80528	23895.523
80279	23859.084
77159	23771.15
54448	23657.336
33446	23532.854
79618	23412.557
78533	23324.56
75650	23262.809
56333	23239.83
41214	23246.365
81040	23270.318
73008	23317.004
73732	23362.12
59468	23411.742
51450	23465.887
82516	23534.154
66882	23644.85
71555	23788.309
61373	23971.617
53006	24184.223
83698	24409.834
62378	24643.992
70014	24842.713
61899	24992.838
52886	25085.475
82877	25134.578
58876	25192.89
69025	25294.123
61369	25513.955
53026	25918.8
82737	26569.957
59104	27522.691
69263	28764.238
62458	30274.332
53533	31982.79
82966	33794.395
61531	35609.34
71153	37297.234
63276	38773.43
54358	39970.95
82431	40855.137
51115	41447.234
48268	41778.785
50330	41933.285
56022	41998.684
82296	42047.945
44088	42153.145
36306	42336.14
45645	42612.008
56019	42962.67
82295	43337.195
43023	43692.707
32794	43968.207
44226	44139.945
56488	44198.855
82609	44144.65
45563	44012.54
54744	43825.824
56366	43642.645
55271	43506.406
83070	43428.97
53910	43421.066
66898	43452.79
64159	43514.637
54354	43582.727
82873	43613.832
60386	43589.29
68156	43485.145
64053	43324.13
52869	43134.53
82388	42931.715
64063	42747.816
67966	42595.016
63544	42505.055
54984	42487.4
84806	42517.137
63639	42574.27
68756	42618.582
71450	42638.727
67761	42620.992
84476	42545.598
48207	42419.023
69117	42236.965
71528	42038.176
68974	41853.14
84871	41693.742
55918	41576.61
70119	41488.25
70521	41436.09
67315	41406.777
84868	41362.863
67215	41275.504
71748	41105.703
68186	40853.184
64880	40520.773
83148	40108.63
67794	39641.297
70584	39140.426
67414	38662.18
65571	38254.22
83246	37941.56
64940	37749.49
69999	37673.97
69159	37724.73
67140	37890.152
81922	38132.426
51696	38421.56
66760	38705.992
70586	38971.92
69350	39208.305
81562	39399.168
45819	39552.797
66071	39660.484
72943	39750.023
70723	39841.188
80284	39931.457
41984	40022.367
65915	40078.277
73241	40090.105
71830	40039.336
80594	39897.484
39519	39660.684
66106	39313.016
74339	38893.35
72697	38452.832
80185	38043.406
36803	37735.824
65359	37563.883
76077	37578.516
74180	37796.19
80625	38187.727
35581	38704.27
65618	39236.25
77224	39691.434
75776	39967.258
81303	39965.79
34815	39630.37
65294	38909.445
77886	37830.438
75838	36444.26
80559	34837.887
33588	33129.35
64793	31403.967
78419	29772.678
76397	28307.715
81519	27062.293
34211	26077.875
64889	25337.383
78608	24846.316
76693	24591.48
81162	24570.51
34182	24803.94
65033	25279.924
79318	26019.564
77238	27021.934
81663	28273.232
35263	29750.562
65518	31364.006
78618	33029.35
77059	34636.73
82251	36079.707
37804	37282.406
66066	38161.5
78035	38702.52
76074	38928.465
82352	38907.543
40196	38752.83
66864	38553.957
76768	38421.06
75276	38432.562
83138	38632.39
43166	39036.387
66695	39584.953
76871	40212.984
75533	40833.62
84240	41366.258
48323	41763.95
67263	41979.266
75996	42022.754
74405	41933.008
84034	41774.203
50610	41634.27
67381	41564.68
75276	41617.3
74218	41811.715
84417	42137.965
51599	42572.3
67476	43042.125
75494	43488.457
73710	43854.51
83361	44100.824
52318	44223.863
67739	44213.688
75299	44099.445
73724	43916.258
83401	43701.934
50608	43501.383
66974	43314.477
75590	43145.258
73256	42977.7
82746	42787.414
50066	42565.44
66203	42273.156
74841	41901.47
73337	41456.58
81911	40960.777
49439	40465.652
65281	39990.656
74662	39571.758
73370	39236.75
82581	39000.082
51881	38876.53
66307	38832.535
74251	38843.04
72798	38875.43
82743	38898.496
54064	38901.215
66780	38854.367
74184	38760.305
72524	38627.387
82996	38472.03
57723	38328.73
67155	38204.395
74175	38121.832
73131	38089.383
82837	38107.25
53782	38182.746
65706	38287.766
74422	38412.4
73056	38537.48
82093	38646.133
50748	38740.508
64911	38797.152
74764	38820.527
72886	38811.574
81953	38774.855
49751	38733.445
63964	38680.973
75689	38632.168
73583	38593.664
80819	38570.023
44396	38579.117
63668	38602.027
76108	38641.902
74074	38695.387
80709	38753.434
42169	38821.0
62681	38873.586
75861	38915.902
73599	38952.562
80967	38983.15
42836	39023.934
62099	39062.918
75434	39113.996
73588	39186.44
82937	39276.477
52488	39389.145
64857	39501.34
75669	39612.85
73353	39713.453
82242	39791.953
53810	39855.133
64509	39888.27
75243	39904.645
72787	39913.277
82149	39924.72
55328	39966.285
65242	40035.63
74835	40145.734
72066	40297.57
82691	40483.08
62394	40703.85
67078	40933.098
74201	41158.914
71873	41366.176
83566	41540.074
69611	41683.28
68159	41783.312
72614	41847.66
70274	41883.03
82003	41893.785
73018	41895.17
69974	41886.9
71908	41884.973
69294	41888.47
81296	41893.75
73173	41905.176
69444	41912.914
71493	41921.016
69104	41922.664
80274	41909.92
69393	41885.285
67315	41838.41
71573	41770.406
69059	41679.523
80672	41563.293
68310	41431.215
66599	41281.074
72131	41122.37
69401	40963.55
80784	40810.895
67473	40679.434
66475	40568.5
73039	40485.742
70284	40432.66
80597	40405.207
58341	40409.227
62751	40430.684
73466	40473.207
70696	40533.074
81388	40606.055
56764	40702.555
61773	40814.28
73774	40951.18
70238	41110.098
81311	41281.594
65181	41464.062
64644	41637.266
73733	41795.72
70478	41920.023
81434	41990.62
68516	42003.05
65536	41945.51
72519	41830.914
69594	41663.418
81204	41451.33
70657	41216.945
66878	40971.254
72505	40741.992
69251	40536.656
80829	40356.25
70701	40207.992
66768	40082.727
72460	39986.49
69333	39905.86
80814	39825.273
69168	39740.965
65263	39638.227
73106	39522.402
69203	39383.83
80859	39212.715
64240	39015.625
62472	38788.55
73241	38551.336
69700	38312.65
80702	38084.125
56688	37896.875
58870	37766.477
74279	37727.844
70944	37796.0
81426	37974.434
54000	38270.6
57965	38659.363
75273	39123.08
71296	39618.848
81274	40095.062
53119	40516.594
57204	40836.562
76983	41041.387
73354	41121.5
81045	41084.207
40484	40972.113
52250	40815.805
79941	40672.875
75736	40588.637
81973	40595.51
38215	40728.816
52758	40978.17
79158	41336.527
75343	41770.773
84528	42234.676
55481	42694.73
59847	43102.55
77546	43439.184
72890	43689.504
84106	43849.254
74774	43937.984
68416	43973.254
75683	43988.414
70840	44002.77
82531	44022.965
76282	44054.617
69133	44082.92
74935	44097.25
70502	44073.59
82897	43986.05
74441	43826.73
66834	43589.754
74475	43294.734
70515	42965.523
82719	42630.617
70463	42333.35
63018	42102.58
75417	41967.49
71169	41935.926
81689	41993.535
56640	42122.746
57494	42275.074
76559	42408.254
72566	42475.02
81463	42431.742
46123	42266.977
53235	41966.59
78196	41553.22
74170	41064.402
81575	40546.473
39881	40069.54
47984	39677.105
81789	39416.258
77395	39316.37
81741	39380.883
31558	39611.305
20635	39969.188
55387	40410.88
78134	40882.61
82503	41336.336
27599	41749.223
16209	42088.094
53561	42341.227
79678	42507.51
84348	42601.125
30580	42658.883
43620	42690.25
82777	42714.566
80899	42748.06
86364	42792.61
36551	42860.426
48499	42930.043
85223	42991.023
80623	43034.473
87072	43046.64
43100	43035.492
51194	42988.2
84680	42908.793
80241	42802.36
87545	42666.203
44964	42513.246
52270	42328.81
83830	42109.773
79073	41851.496
87215	41543.297
49050	41197.016
53438	40809.26
83170	40399.508
78549	39991.234
86596	39606.74
46234	39287.992
50523	39050.137
84883	38913.836
80278	38883.582
86384	38941.863
40500	39075.23
46354	39232.23
85573	39368.414
81296	39438.242
86000	39396.87
35561	39234.406
40029	38934.61
82478	38513.875
81743	38012.734
86873	37481.426
36988	36999.12
45058	36619.746
86424	36401.125
82443	36391.113
88584	36609.496
42793	37073.496
49079	37754.617
86048	38617.62
81224	39618.61
88172	40698.344
47093	41814.3
50841	42904.516
84600	43920.527
80596	44827.664
88140	45591.082
49443	46201.855
51789	46639.125
84299	46896.27
79766	46986.45
87361	46924.453
48868	46751.688
50210	46497.832
84072	46199.18
80616	45902.277
87321	45637.668
45481	45437.88
46826	45294.76
85557	45179.715
81558	45058.332
86871	44874.594
39904	44587.027
42054	44141.137
85096	43506.043
83328	42695.72
87410	41750.824
34826	40762.277
27521	39819.473
69057	39015.37
82274	38436.25
87240	38128.086
33391	38102.566
24540	38289.773
66371	38563.926
83126	38767.594
88248	38724.65
35133	38291.113
40812	37342.01
87303	35831.207
84969	33810.168
89496	31410.035
39532	28857.658
43483	26403.086
88271	24315.93
84442	22846.94
89526	22170.975
43154	22390.066
44670	23477.057
87419	25305.605
83615	27678.65
89281	30336.7
45489	33025.605
46575	35494.902
87139	37553.75
82733	39103.125
89063	40117.996
48560	40667.406
49133	40856.875
85289	40823.332
81102	40716.66
89150	40650.977
56309	40713.07
54422	40922.19
83314	41252.582
79201	41654.613
88571	42051.914
77861	42380.906
65238	42589.027
82381	42651.465
77253	42582.06
86581	42410.684
80846	42192.26
67114	41977.293
81196	41805.35
76575	41699.895
85654	41648.44
80179	41624.99
67119	41580.023
79774	41463.19
74877	41233.508
85023	40858.223
79379	40343.066
64801	39716.01
79678	39034.97
74962	38376.97
84063	37813.44
77382	37421.0
63229	37249.766
79429	37326.58
74811	37648.65
83173	38171.223
71541	38839.1
58941	39572.91
79446	40299.504
74984	40953.176
83113	41473.77
64017	41843.46
53146	42057.668
78802	42145.22
75031	42149.266
83165	42108.19
60895	42076.004
50866	42081.87
80046	42141.523
75336	42255.67
83081	42393.766
54546	42530.047
47616	42619.008
79804	42617.746
75983	42510.2
83621	42288.145
53847	41980.246
46401	41618.652
80256	41243.156
76728	40908.934
83676	40648.996
53728	40489.203
46500	40410.73
80502	40361.434
76365	40277.895
84054	40069.523
55113	39661.555
46941	38982.33
80378	37993.305
76709	36716.957
84065	35214.05
56082	33609.133
47301	32046.172
80459	30687.494
76966	29695.408
84694	29185.94
56323	29240.143
47118	29857.633
80302	30977.143
76214	32482.94
83934	34203.418
55890	35968.54
46724	37600.77
80604	38964.082
76638	39977.56
83834	40603.168
55303	40882.117
45564	40886.094
80453	40722.926
77148	40515.2
84058	40351.707
54741	40302.086
45270	40385.816
80741	40591.99
77167	40885.824
84395	41195.188
54479	41459.305
44696	41623.8
80584	41674.51
77237	41631.312
84248	41528.54
54399	41445.11
44274	41452.523
81705	41625.453
77640	42019.56
83947	42641.312
53851	43483.453
43814	44488.285
81847	45580.504
77878	46676.906
84393	47678.215
54188	48521.2
43601	49149.83
81058	49544.77
77676	49720.285
84795	49697.8
55339	49535.465
43984	49281.26
81177	48985.74
77601	48696.367
84919	48430.12
56891	48209.71
44267	48029.66
80674	47881.332
77426	47758.184
84522	47634.34
57523	47506.48
44753	47358.633
80523	47184.582
77115	46984.887
83928	46741.457
59292	46457.617
46450	46123.15
80544	45738.05
76808	45310.04
84009	44830.99
60741	44319.03
46313	43784.78
80042	43250.844
76613	42743.68
83779	42268.26
60405	41845.805
46151	41476.867
80017	41160.855
76808	40894.32
83724	40650.703
59953	40422.973
45724	40193.05
80294	39953.418
76366	39710.375
82994	39459.652
58351	39223.004
43987	39012.016
79756	38841.934
76529	38731.754
83773	38676.02
58958	38681.734
43610	38735.375
79896	38821.582
76331	38931.227
82898	39037.53
57676	39137.555
42301	39220.535
79944	39286.082
76924	39347.473
83653	39400.793
57404	39464.133
41723	39539.535
80390	39630.184
76686	39742.285
83056	39855.52
57927	39967.508
42068	40061.7
80001	40128.363
76989	40170.094
84107	40172.266
59209	40141.38
42473	40079.195
80499	39996.715
77104	39915.977
83713	39836.625
58696	39770.797
41571	39719.12
80068	39685.777
76908	39677.395
83289	39676.11
57627	39685.254
40597	39694.832
79881	39701.2
76707	39709.02
83799	39702.547
57573	39690.9
40041	39671.57
79669	39647.46
77078	39630.61
83568	39611.55
58500	39602.246
40478	39601.297
80260	39608.87
77242	39632.656
83816	39657.516
59317	39688.383
40811	39717.19
79864	39737.74
77339	39754.344
83954	39753.39
60563	39744.035
41142	39727.062
79957	39704.77
77148	39692.723
83667	39688.812
60777	39708.11
41302	39754.043
79754	39817.145
76815	39903.42
82658	39998.688
60584	40101.53
40739	40201.414
79698	40277.734
76858	40333.863
83568	40361.953
60182	40373.617
39992	40376.453
79692	40369.11
77564	40371.938
83674	40388.96
60127	40435.41
39446	40512.97
79389	40606.59
77521	40718.445
83709	40831.88
60503	40944.117
39324	41045.207
79633	41116.195
77221	41163.715
83153	41181.98
60674	41183.285
39149	41173.617
79471	41148.742
77535	41123.33
83779	41092.152
61368	41063.008
39164	41032.32
79176	40987.066
77318	40932.38
83525	40856.0
60371	40765.348
38080	40661.742
79365	40542.344
77104	40424.56
83361	40306.723
60514	40204.633
37910	40122.242
79268	40055.555
77188	40013.08
83279	39979.887
60478	39957.85
37071	39938.367
79441	39908.484
77803	39873.35
83561	39820.254
59839	39758.63
36515	39691.574
79536	39619.242
78016	39559.445
83930	39509.24
59511	39484.242
35674	39488.3
79249	39516.953
77851	39579.797
83366	39662.812
59746	39768.16
35680	39886.75
79053	40001.805
78233	40113.21
84171	40200.438
60417	40263.074
35888	40293.59
79854	40280.734
78077	40234.61
83695	40147.42
60144	40034.09
35416	39902.848
79202	39757.51
78539	39620.113
83993	39491.156
60018	39388.387
34926	39317.664
79121	39274.64
77879	39269.7
84086	39288.184
62616	39332.184
36860	39394.56
79199	39461.715
77711	39538.504
83377	39609.758
63236	39680.84
37597	39751.254
78789	39815.754
77684	39886.508
83741	39953.77
63271	40025.59
36897	40100.94
78891	40170.75
77968	40241.996
83481	40298.562
63149	40343.184
36458	40371.87
79219	40374.914
78528	40362.184
83804	40323.375
63004	40269.426
35664	40205.707
79448	40131.527
78513	40064.984
83941	40001.19
63071	39953.12
35308	39924.6
78819	39909.387
77495	39917.426
83533	39933.395
63837	39959.008
35392	39988.312
78416	40006.895
78218	40020.492
83826	40014.55
64543	39995.344
35809	39965.93
78839	39922.914
78231	39884.188
83231	39846.14
64201	39822.31
35423	39818.676
78626	39828.367
77898	39861.15
83176	39901.668
63713	39950.008
34705	39998.973
79008	40030.625
78277	40049.75
83808	40041.547
63095	40012.543
32592	39966.516
78068	39898.438
78415	39826.445
83243	39747.348
62147	39674.824
31584	39615.2
77846	39561.05
78566	39524.57
84026	39494.105
62184	39475.547
31665	39468.17
78251	39460.19
78846	39462.094
83648	39462.188
62925	39466.95
32186	39476.586
78538	39478.883
79496	39482.695
84558	39473.215
63851	39453.965
32601	39423.82
77971	39372.17
78562	39313.06
83955	39240.184
64460	39168.543
32717	39109.55
78315	39063.727
79136	39051.53
83908	39066.504
64299	39115.844
32086	39196.6
77528	39288.965
79078	39391.613
83664	39478.72
64193	39543.8
32333	39578.902
78144	39569.523
79331	39530.043
83612	39457.438
64486	39371.598
32321	39290.453
77876	39219.95
78581	39186.336
82949	39187.484
64836	39233.44
32229	39323.85
76924	39440.992
78623	39585.348
83679	39731.42
65055	39872.316
32331	39998.234
77483	40090.855
78273	40158.38
83239	40188.566
65382	40190.95
32047	40173.953
77410	40134.855
78636	40094.875
83513	40050.25
66117	40014.418
31884	39995.55
76539	39986.414
78454	40000.332
83344	40023.992
65438	40059.48
31321	40103.312
76839	40136.926
79057	40165.273
84021	40170.074
65732	40153.03
30705	40115.902
76873	40049.727
79370	39973.816
83691	39886.64
65715	39806.207
30676	39747.64
76554	39709.258
78950	39710.105
83591	39739.883
66238	39800.516
31331	39885.906
76703	39972.4
78668	40059.29
83277	40122.566
67118	40158.766
31918	40167.09
76398	40137.94
78776	40090.727
83016	40023.652
66754	39953.395
31611	39893.082
76986	39837.82
79457	39802.742
83061	39773.156
67022	39747.316
31151	39719.01
75874	39666.934
78836	39596.59
82794	39493.19
66498	39364.406
30778	39221.395
76012	39064.523
78950	38921.71
82911	38796.29
66914	38706.223
30665	38663.27
75569	38658.727
78311	38703.355
82972	38777.902
67389	38877.348
30349	38993.99
75680	39105.22
79159	39216.08
83222	39309.688
67516	39389.582
29758	39460.844
75623	39513.93
79255	39565.688
82846	39606.625
66796	39643.008
28799	39678.137
74943	39698.074
79201	39713.773
83136	39711.08
66100	39694.746
27733	39669.883
75282	39627.64
79911	39587.082
82928	39542.625
65981	39506.008
27208	39486.707
74593	39475.344
79523	39486.21
83371	39504.81
66518	39531.56
27384	39564.36
74544	39583.805
79669	39597.855
83271	39590.344
67051	39565.29
27843	39529.004
74918	39473.46
79732	39419.547
83260	39363.184
67180	39317.18
27757	39292.453
74917	39280.594
80061	39296.816
83479	39327.02
67641	39371.64
27517	39428.81
74275	39477.777
79489	39525.38
82735	39554.27
67389	39565.85
28344	39564.21
74432	39538.266
79498	39506.133
83204	39462.535
68568	39418.82
28727	39386.137
74204	39356.152
78906	39345.824
82579	39344.13
68678	39353.94
28306	39377.23
73743	39396.566
79434	39421.516
82939	39436.76
68910	39444.4
28254	39448.98
73658	39438.29
79348	39428.99
82825	39412.664
68858	39397.633
29019	39392.79
74227	39387.992
79555	39399.645
82789	39416.742
69719	39443.168
29163	39482.92
73511	39520.54
79202	39567.684
82583	39610.105
69904	39649.098
29021	39688.07
73170	39711.574
78736	39732.684
82088	39738.746
69864	39733.254
28580	39722.242
72743	39692.613
78841	39659.836
82604	39613.72
69908	39560.312
27750	39508.043
72116	39445.86
79269	39390.867
82156	39334.242
69754	39282.76
27701	39244.785
71853	39209.168
78497	39192.484
81717	39183.824
69972	39187.098
27421	39207.945
71214	39231.52
79233	39269.887
82743	39307.42
70463	39343.527
27559	39379.445
71247	39397.36
78978	39407.652
82469	39394.918
70234	39361.09
27464	39312.625
71310	39238.355
79161	39157.03
82156	39062.336
70065	38964.254
27185	38875.613
71477	38788.582
79288	38722.41
82198	38667.58
70631	38627.85
26969	38607.92
70959	38590.75
79413	38587.137
82158	38581.88
70574	38575.617
26854	38574.137
70910	38564.41
79621	38564.027
82459	38565.29
70773	38575.855
27016	38606.227
70610	38644.766
79110	38706.137
82206	38775.824
71159	38851.72
27508	38933.562
70326	38999.66
78971	39057.305
81606	39089.086
72055	39094.953
27821	39082.727
69865	39042.49
79083	38995.863
82198	38940.55
71728	38889.023
27779	38856.953
70240	38836.875
79062	38846.684
81666	38874.434
71759	38919.016
27709	38980.816
69652	39037.402
78936	39095.293
81521	39135.75
72183	39156.844
27709	39164.11
69704	39144.844
78726	39118.27
81527	39079.355
72297	39037.836
28463	39007.805
69438	38981.367
78446	38977.59
81192	38987.18
71903	39012.605
28170	39059.176
69910	39109.84
79315	39175.883
81111	39241.78
71499	39305.375
27689	39369.586
69359	39416.24
78849	39456.707
81203	39476.625
72093	39476.03
27771	39461.473
68730	39419.652
78809	39368.047
80913	39300.094
72034	39224.07
27854	39154.39
68907	39083.406
78957	39031.49
81036	38991.23
72315	38965.15
28538	38958.12
68494	38950.65
78649	38950.383
81332	38938.496
72605	38910.637
28507	38870.773
68463	38804.47
78576	38730.527
81140	38645.332
72829	38560.617
28608	38494.652
68280	38442.676
78631	38425.902
81066	38435.51
72628	38470.86
28496	38532.938
68160	38597.7
78681	38668.902
81160	38725.152
72749	38760.723
28384	38779.27
68224	38766.727
78849	38742.66
81439	38703.33
72838	38659.21
27689	38626.508
67939	38596.656
78708	38588.156
80992	38589.83
72085	38600.316
27488	38622.66
67853	38636.7
78771	38653.285
80257	38658.773
72598	38654.184
28238	38649.36
68082	38633.684
78679	38627.312
80951	38622.62
73613	38623.02
29338	38636.92
67908	38648.31
78974	38669.43
80989	38684.82
74269	38691.844
29839	38696.223
67349	38684.145
78669	38673.363
81104	38656.88
73902	38641.062
29958	38639.0
67641	38640.6
78353	38663.082
80674	38694.05
74963	38730.47
30457	38774.77
67430	38806.41
78750	38834.734
80574	38844.215
74500	38833.758
30588	38812.688
67041	38771.066
78153	38730.516
80173	38687.008
74934	38647.426
31003	38624.996
66948	38608.55
78331	38613.2
80019	38625.805
74717	38642.773
30931	38667.465
66850	38681.457
78601	38696.605
80188	38700.91
74973	38695.164
31176	38689.46
66145	38672.44
78039	38661.965
80644	38649.434
75321	38636.01
31648	38629.58
66209	38614.633
77967	38604.207
79866	38585.785
75239	38558.11
31784	38529.56
66226	38488.01
77909	38451.51
79658	38413.7
75336	38379.08
32184	38359.99
65903	38345.383
77602	38351.44
79573	38367.24
75488	38390.555
32145	38426.516
66083	38457.234
78366	38494.047
79708	38524.223
75158	38546.086
31268	38567.902
65246	38576.008
77860	38586.67
79406	38591.33
74774	38591.203
30297	38595.5
65006	38589.812
77923	38588.746
79619	38581.84
74977	38568.406
30423	38557.656
64817	38536.33
78079	38521.668
79713	38506.57
74585	38493.875
30304	38494.824
64531	38496.074
78285	38512.176
80023	38531.195
75078	38548.56
30450	38567.57
64542	38567.79
78665	38558.78
79675	38527.34
75051	38471.785
30764	38402.81
64026	38311.453
78698	38220.8
80298	38131.64
75666	38054.79
30788	38009.76
64383	37990.426
78830	38016.684
79723	38079.676
75293	38174.918
30326	38303.45
63927	38439.504
78823	38585.055
79638	38718.074
75174	38826.67
29777	38912.316
63231	38956.816
78485	38976.184
79949	38966.31
76177	38935.004
31988	38901.75
64132	38863.004
78473	38842.773
80072	38837.695
76924	38849.133
33606	38884.117
63976	38923.617
78361	38974.668
79688	39019.734
76531	39049.883
33158	39068.652
63482	39059.43
78144	39038.02
79869	38999.945
76204	38950.992
32923	38907.88
63441	38864.0
78028	38839.74
79719	38828.81
76744	38829.906
32820	38849.125
62763	38867.305
78366	38892.918
79764	38911.934
76876	38919.45
32688	38923.684
62284	38912.1
77963	38902.703
79592	38891.543
76146	38882.344
32053	38887.785
62374	38894.797
78559	38915.938
79189	38939.043
76557	38957.242
32319	38974.11
62002	38970.676
77976	38958.89
79081	38930.945
76366	38889.41
32349	38850.59
62046	38808.453
78368	38784.867
79718	38777.094
76843	38786.094
32184	38819.9
61728	38858.555
78186	38907.137
79258	38946.977
76906	38965.94
33021	38965.492
61915	38927.176
78156	38865.027
79400	38775.39
76866	38664.97
33739	38553.684
61477	38438.867
77298	38343.984
78693	38267.76
77235	38211.598
34062	38184.46
61608	38169.293
78192	38174.47
79195	38186.246
77233	38197.55
33703	38214.184
60559	38220.84
77888	38231.023
79056	38238.406
76648	38243.14
33819	38256.08
61216	38264.58
78649	38282.008
79325	38300.027
76663	38315.785
33673	38337.875
60665	38352.777
78046	38374.99
78976	38398.496
77303	38423.223
34141	38459.785
61046	38494.277
78293	38537.906
79455	38578.04
77374	38606.062
33561	38623.91
59956	38611.26
78501	38576.81
79164	38512.168
76935	38419.35
33585	38317.168
60216	38205.277
78775	38112.715
79047	38048.277
76645	38023.94
33601	38058.4
59466	38140.93
77906	38279.938
79067	38456.82
76894	38652.75
32859	38857.76
59029	39037.945
78283	39188.51
78643	39290.426
76491	39335.613
32964	39334.887
59309	39282.105
78459	39202.44
79223	39104.168
76903	39000.76
33841	38915.355
59531	38843.77
78124	38803.895
78353	38789.188
77428	38793.0
34724	38817.875
58904	38841.734
78287	38868.133
78734	38883.29
77629	38879.934
34391	38866.0
58157	38828.758
77943	38783.38
78536	38728.18
77753	38665.785
34279	38611.258
58435	38554.91
78470	38511.39
78581	38475.695
77448	38444.848
34611	38427.535
58279	38408.58
78439	38398.066
78902	38388.645
78041	38377.1
35883	38373.133
59453	38364.324
78654	38363.938
79143	38367.51
78089	38373.566
35567	38392.35
57770	38410.484
78267	38438.16
78004	38467.83
77514	38494.316
35806	38524.87
57839	38544.4
78204	38562.844
78238	38574.242
78070	38576.29
35693	38580.29
56960	38575.23
78217	38574.387
78509	38574.29
77648	38573.484
35170	38582.6
56014	38588.508
77778	38601.19
78743	38613.484
77997	38620.594
35608	38630.63
56646	38629.383
78303	38627.402
78118	38619.33
78239	38602.664
36368	38588.684
56719	38566.457
78353	38549.324
78851	38533.902
78744	38518.938
37080	38515.773
56441	38513.332
78071	38523.29
78475	38540.25
77793	38560.246
36207	38591.32
55541	38618.766
78566	38650.47
78521	38678.086
77645	38695.047
36318	38708.457
55533	38704.35
77969	38693.066
78189	38670.906
78123	38636.84
37687	38603.824
57403	38563.496
78640	38530.684
79040	38502.742
78915	38476.67
36166	38461.38
54567	38441.184
78096	38422.02
78619	38394.14
77963	38349.785
35686	38296.984
53621	38224.3
77844	38146.176
78258	38064.805
78706	37985.2
37044	37926.902
54854	37886.203
77656	37879.32
77688	37903.707
78565	37953.04
38726	38030.367
55333	38114.203
77953	38203.457
78384	38283.4
78837	38342.203
40096	38384.742
55550	38399.395
77684	38399.723
78252	38387.94
79509	38367.598
41171	38354.434
56015	38341.645
77444	38340.11
77504	38343.184
79513	38341.81
42983	38338.926
56698	38319.066
77339	38290.555
77345	38251.72
80593	38204.51
50011	38167.0
57557	38142.566
77414	38152.36
77120	38200.43
80282	38284.38
50910	38406.79
58191	38547.688
77246	38700.246
76987	38840.863
80588	38945.617
52356	39007.13
59607	39008.82
77254	38961.38
77035	38869.383
80425	38743.273
53211	38609.133
58550	38478.258
76740	38376.56
76968	38309.85
80636	38275.45
52963	38275.13
58746	38289.62
77003	38314.63
76294	38331.99
79633	38325.438
51493	38296.19
56778	38236.64
76566	38162.555
76114	38081.133
79155	38000.273
47861	37939.97
55551	37900.45
76801	37895.5
76867	37921.7
79074	37970.402
47112	38042.734
55308	38121.504
76696	38208.41
76923	38294.367
79666	38370.484
51198	38441.285
56522	38496.133
76739	38541.062
76454	38568.76
80009	38568.6
53156	38541.92
57053	38477.195
76151	38382.914
76066	38260.29
79543	38114.652
55126	37968.22
57881	37833.9
76482	37741.16
76066	37704.21
80636	37728.27
65090	37818.523
61622	37960.37
76384	38143.1
75559	38335.81
80696	38502.1
67105	38616.9
62416	38654.16
75861	38612.62
75161	38491.06
80019	38298.266
67925	38062.26
63003	37809.42
75689	37580.133
74815	37397.137
79979	37271.875
68436	37214.492
63060	37217.55
75191	37278.316
74593	37376.23
79136	37487.418
69219	37599.227
63891	37698.11
75505	37790.555
74465	37875.67
79693	37952.95
68637	38032.28
63284	38114.38
75371	38209.47
74792	38310.01
79445	38401.992
68408	38479.062
62584	38529.152
75254	38557.523
73981	38563.117
78629	38549.02
68459	38533.53
62871	38531.742
74758	38571.99
74068	38667.027
78502	38819.25
68758	39030.85
62800	39287.812
74441	39581.062
73879	39884.258
78838	40166.477
68196	40409.332
61774	40594.312
75092	40724.77
73866	40802.207
78683	40832.285
67647	40835.723
60724	40827.965
74948	40834.34
74523	40863.574
79353	40913.2
65660	40983.395
59288	41059.99
74997	41137.13
74396	41197.94
78570	41224.215
56358	41214.555
54959	41161.22
75704	41075.473
74471	40963.984
78846	40829.645
53705	40687.863
51991	40537.477
75287	40385.727
74656	40227.76
78101	40050.76
46224	39856.137
49114	39631.062
75771	39382.47
75107	39117.71
78075	38845.914
44991	38597.324
48006	38388.68
76210	38249.87
75833	38199.402
79093	38240.055
44804	38377.82
47397	38588.773
75980	38851.92
76043	39132.746
79101	39388.723
45783	39597.1
48309	39727.977
76787	39779.652
76373	39760.914
79274	39689.82
45487	39611.176
47323	39558.56
76849	39577.438
76000	39699.88
79341	39936.875
44821	40297.24
46339	40754.83
76734	41280.957
76491	41832.59
79539	42356.363
44203	42819.473
45568	43182.547
77134	43433.566
77335	43572.94
80061	43609.047
43995	43577.375
45019	43501.402
76689	43416.266
76534	43347.297
79154	43303.77
43266	43299.816
44583	43322.273
77566	43363.906
76834	43411.676
79708	43446.113
42994	43468.945
44474	43470.746
77238	43460.723
76968	43449.145
80158	43439.18
43543	43448.477
43678	43472.164
77700	43510.793
77633	43556.457
80536	43589.51
42742	43606.387
43324	43588.17
77808	43533.15
77841	43445.63
80911	43329.332
42531	43210.383
43098	43099.18
77925	43015.05
77656	42970.973
81153	42963.414
43586	42996.676
42983	43049.78
78101	43107.277
77981	43153.008
80568	43166.47
43646	43150.547
43157	43099.61
78608	43025.8
78597	42947.887
81084	42878.22
44311	42842.582
42937	42842.715
78324	42877.145
78378	42937.92
80672	42998.613
44617	43042.95
42968	43037.492
78409	42959.203
77783	42798.37
81096	42546.703
44994	42223.348
42683	41840.19
78487	41420.242
78500	40992.266
81690	40572.355
46052	40184.82
42939	39829.133
78619	39500.695
78241	39194.566
80435	38893.445
46241	38595.715
43241	38288.723
78561	37971.348
78501	37654.867
81706	37346.86
47219	37073.418
43714	36844.656
78895	36672.02
78314	36566.637
81108	36522.273
47453	36541.125
43209	36604.895
78906	36698.004
78746	36809.547
81309	36921.04
47790	37033.297
43166	37136.344
77992	37229.305
78304	37316.844
81714	37393.793
48085	37469.082
42586	37534.8
78184	37584.668
78234	37617.277
81240	37621.473
47561	37603.96
42105	37560.457
78615	37494.145
78457	37419.27
81424	37342.016
47973	37283.86
42413	37249.55
78962	37241.41
78403	37263.957
81273	37304.953
48184	37362.27
41849	37417.49
78643	37450.72
78638	37456.965
82088	37425.71
48404	37367.43
41271	37285.562
78643	37185.92
78258	37090.277
81458	37009.24
47639	36964.43
40456	36958.785
78259	36985.36
78256	37044.504
81338	37121.066
47291	37211.09
40273	37297.246
78632	37360.895
78611	37401.848
82016	37414.625
47288	37412.59
39789	37399.67
78648	37377.09
79078	37360.047
81776	37351.37
46683	37364.125
39413	37393.516
79036	37427.266
79385	37465.438
82446	37497.223
46558	37527.29
38203	37549.523
78359	37556.664
78850	37559.62
82623	37560.523
46788	37576.848
38403	37611.277
78286	37658.703
78940	37725.105
82171	37801.707
47402	37889.984
38239	37976.527
78166	38042.215
79409	38084.953
82260	38096.27
47786	38085.895
38329	38055.83
78616	38006.67
79019	37957.152
82634	37914.664
48461	37898.957
38226	37913.117
78215	37949.59
78865	38011.375
82335	38085.54
48933	38170.695
38631	38252.68
78365	38314.54
78758	38357.88
82640	38376.805
49991	38384.348
38586	38384.33
78216	38380.6
79141	38388.355
82349	38408.32
50769	38452.965
39481	38517.656
78174	38592.953
78604	38677.652
82649	38755.523
51144	38826.91
38776	38881.117
77735	38911.992
78228	38925.25
82312	38915.918
51467	38897.945
38733	38873.254
77818	38844.67
78434	38821.66
82178	38797.367
52013	38779.695
39095	38762.484
77643	38740.906
78461	38718.496
82636	38685.71
52891	38651.64
38900	38615.055
78059	38577.21
78811	38548.285
82154	38524.023
52859	38515.535
38599	38520.613
77396	38536.254
78381	38566.387
81998	38599.254
52574	38639.55
38280	38679.887
77877	38714.363
78355	38746.742
82449	38765.793
52571	38778.008
37641	38778.13
77163	38762.05
78816	38734.574
82114	38685.92
52560	38624.246
37838	38547.51
77287	38456.824
78328	38363.734
81788	38265.81
52598	38178.41
37307	38105.297
77472	38049.734
78738	38021.84
82134	38013.07
52729	38029.332
36924	38062.344
77327	38102.816
78789	38149.51
82441	38185.84
52861	38214.293
36619	38227.914
77343	38222.906
78690	38207.613
81909	38175.44
52654	38138.49
36309	38097.477
77403	38053.33
78336	38015.535
81633	37975.53
52393	37941.76
35768	37910.65
77539	37879.535
78914	37855.934
82659	37831.055
52305	37815.418
35107	37807.918
76944	37808.0
78450	37824.63
82142	37848.395
52136	37886.492
34641	37933.613
77201	37982.617
78436	38036.746
82140	38081.55
52706	38121.465
35184	38151.32
77306	38167.125
78737	38177.67
82626	38175.523
53589	38172.547
35401	38170.508
78034	38170.094
79639	38182.637
82843	38200.754
53676	38234.03
34994	38279.71
77638	38332.66
79315	38398.55
82824	38464.22
54513	38534.133
35263	38602.277
77028	38661.215
78838	38715.62
82384	38752.6
54319	38777.65
34913	38787.445
77536	38777.27
79129	38756.137
82154	38716.746
54666	38670.58
34710	38620.883
76974	38569.395
78409	38530.77
82258	38501.07
55502	38492.824
34945	38507.52
77330	38541.094
79403	38599.957
82580	38669.637
55883	38751.13
34849	38835.117
76944	38908.64
78606	38972.594
82482	39011.33
56432	39028.766
35009	39022.867
76559	38991.176
79029	38946.684
82721	38885.82
56005	38822.992
35046	38763.355
77109	38707.62
78796	38668.27
81961	38636.68
56209	38619.53
34203	38613.36
76926	38609.402
79539	38612.207
82506	38607.8
56848	38600.355
34786	38586.973
76900	38561.973
78733	38535.266
82399	38498.684
57789	38462.25
34698	38428.54
76873	38395.71
78716	38376.06
82557	38361.266
57713	38359.63
34383	38370.26
76946	38386.434
78948	38414.727
82951	38440.816
58187	38467.312
33821	38489.0
76120	38496.223
79211	38494.652
82759	38471.816
58161	38434.766
34325	38384.844
76918	38320.992
79254	38258.35
82713	38192.77
58690	38137.29
33934	38096.863
76175	38069.418
78614	38064.758
82261	38069.305
58739	38084.383
34220	38102.156
76748	38109.51
78850	38108.89
82050	38084.15
58337	38039.89
33232	37977.582
75926	37898.0
78962	37820.016
82459	37744.13
58479	37688.824
33275	37664.082
75674	37671.64
78369	37724.188
82264	37808.684
59176	37924.7
33225	38061.875
76134	38201.8
79329	38341.535
82973	38458.805
58533	38552.37
32389	38617.99
75714	38649.867
78959	38661.92
82860	38649.71
59275	38627.48
32987	38602.562
76639	38574.273
78948	38556.008
82081	38537.438
59608	38523.09
32926	38510.07
75871	38488.465
79151	38466.043
82266	38431.492
59659	38392.527
32986	38353.445
76170	38312.742
79107	38286.6
82234	38269.848
59648	38272.55
32308	38296.594
75711	38333.547
79364	38389.98
82555	38449.652
59742	38512.496
31883	38572.773
75345	38618.14
78925	38655.977
82363	38674.746
60067	38681.914
32617	38680.996
75922	38668.25
79403	38657.977
82569	38642.83
61120	38630.766
32976	38623.32
75115	38612.66
78656	38608.31
82680	38598.18
61835	38587.316
33209	38577.105
75721	38561.0
79018	38552.098
82054	38542.848
61410	38542.03
32727	38553.516
75188	38571.12
78863	38605.695
82553	38644.81
61924	38691.098
32456	38741.758
75219	38784.22
79203	38824.95
82476	38849.973
61994	38862.844
32059	38865.273
75099	38851.254
79124	38835.227
82379	38811.12
62003	38789.414
31861	38776.246
74816	38766.566
78831	38773.03
81905	38784.656
62163	38804.703
31958	38831.83
75382	38853.957
78938	38878.812
81641	38892.848
61696	38899.812
31774	38901.293
74475	38890.312
78829	38880.28
82378	38862.562
62695	38844.555
31715	38829.465
75014	38808.94
79148	38793.293
82478	38769.613
63012	38741.09
31699	38708.28
74905	38662.2
79476	38615.348
82808	38559.375
62732	38503.918
30872	38456.137
74326	38412.6
78847	38389.14
82133	38377.06
62753	38381.805
30643	38403.68
74302	38430.176
79151	38468.07
82429	38500.863
62654	38529.523
30261	38553.402
73839	38562.9
78860	38570.637
82033	38568.242
62990	38564.387
30290	38565.125
74080	38564.453
79302	38575.79
82748	38588.008
63194	38604.99
30204	38627.17
74126	38642.883
79338	38661.863
82589	38671.395
63214	38676.234
29467	38679.855
73840	38674.082
79094	38672.48
82486	38665.242
62639	38657.973
29018	38653.04
73901	38639.484
78879	38628.02
81886	38606.133
63509	38578.11
29604	38547.867
73727	38508.117
79606	38474.76
82037	38441.82
64063	38419.355
30403	38415.297
73423	38423.46
78963	38457.945
82389	38507.07
64520	38572.652
30560	38653.336
73078	38733.45
78894	38818.516
82080	38891.125
64902	38950.492
30054	38996.152
73381	39016.184
79069	39023.203
81393	39008.906
64063	38981.574
29631	38949.766
72551	38909.35
78477	38878.22
81586	38850.094
63887	38833.027
29443	38831.96
73016	38836.11
79230	38855.49
82144	38875.062
64943	38894.24
29698	38912.004
73060	38913.98
79417	38910.297
82112	38889.83
65109	38858.914
30316	38824.94
73333	38782.266
79019	38748.555
81842	38716.97
65550	38693.93
30046	38683.41
72943	38672.55
78619	38670.53
82084	38661.7
65416	38646.855
29296	38628.08
72374	38595.383
79475	38565.367
82086	38533.688
65328	38512.152
28752	38512.78
72260	38530.54
79036	38580.934
81651	38651.5
64838	38740.477
28114	38842.293
72108	38933.438
79044	39014.477
81269	39064.016
64902	39079.105
28257	39061.99
71292	39004.69
78770	38927.887
81934	38831.69
65810	38732.39
28584	38645.902
71369	38569.332
78550	38519.926
81909	38486.516
66219	38468.848
28219	38465.2
71414	38457.03
79410	38451.1
81929	38433.7
65532	38409.12
27668	38385.918
70976	38359.074
78837	38349.324
81554	38352.8
66203	38377.45
28028	38428.258
71421	38489.62
79586	38566.28
82592	38636.066
67059	38690.492
28152	38723.492
71562	38715.797
79159	38678.08
81216	38602.43
66880	38500.594
28422	38390.332
71298	38274.434
79138	38180.816
81804	38110.883
66529	38076.24
27812	38084.77
71479	38121.742
79578	38193.227
81933	38277.94
66861	38367.97
27303	38458.06
70733	38527.96
79200	38586.754
81918	38623.11
66702	38643.55
27276	38658.766
70732	38662.72
79148	38674.1
81971	38685.098
67158	38699.047
27058	38718.33
70446	38725.156
79343	38726.047
81726	38703.9
67189	38657.55
27075	38591.613
70440	38496.453
79396	38392.36
82043	38279.21
67251	38172.766
26763	38091.22
70180	38032.637
78862	38018.27
81686	38040.64
67399	38101.195
26644	38199.543
69716	38312.85
79627	38442.17
82229	38564.605
67313	38672.496
26671	38763.37
69734	38819.945
79634	38855.04
81899	38861.293
67726	38847.31
26659	38826.004
69318	38791.4
79266	38762.824
81638	38733.72
68534	38708.473
26281	38693.23
69238	38672.992
79666	38658.6
81816	38637.11
67515	38609.527
25936	38581.21
68494	38539.08
78755	38497.58
81476	38447.31
67659	38392.496
25715	38340.4
68334	38278.383
79413	38219.797
81926	38154.86
68226	38087.54
25946	38026.78
68306	37963.273
79137	37915.887
81786	37880.086
69208	37864.086
26141	37878.83
68535	37912.406
79440	37976.246
81922	38054.156
68786	38139.39
25969	38227.08
68140	38291.97
79351	38337.258
81613	38345.707
68609	38318.004
25785	38264.84
68273	38182.15
79904	38097.336
81705	38016.04
68950	37955.902
25686	37936.06
67517	37950.145
79235	38012.406
81760	38106.305
69093	38222.492
25083	38352.715
67049	38466.996
79750	38564.35
82398	38624.074
69618	38644.043
25158	38632.977
67083	38584.676
79526	38524.3
81935	38454.758
69212	38390.938
25088	38349.71
66924	38322.832
79477	38324.58
81328	38340.523
68955	38365.23
24941	38396.543
66468	38412.04
79798	38418.7
82240	38402.51
69644	38366.35
25206	38321.645
66345	38261.574
78679	38208.246
80851	38159.49
69324	38123.465
25457	38111.59
67216	38110.59
79682	38132.04
81301	38161.31
70366	38194.055
25949	38231.367
66338	38253.812
78901	38270.926
80888	38270.883
70031	38255.395
25334	38234.367
66118	38197.266
79529	38162.4
81870	38124.48
69355	38089.87
24478	38069.656
65624	38051.83
79213	38050.727
81666	38055.824
69070	38067.477
24408	38090.586
66026	38108.15
79641	38131.19
81443	38147.527
69296	38157.66
24598	38168.824
65848	38167.492
79715	38168.88
82556	38164.74
70438	38158.67
23963	38159.81
64179	38153.855
79427	38152.555
81804	38143.46
70466	38124.656
25175	38100.438
65698	38053.555
79151	37996.64
81673	37921.273
70376	37833.59
25206	37748.42
65884	37660.61
80093	37594.01
81983	37548.418
70732	37532.258
25268	37557.105
65477	37607.62
79435	37692.28
80941	37791.914
70218	37895.777
25170	37999.184
65148	38076.785
79089	38134.715
81107	38159.664
69394	38154.707
24783	38133.74
65278	38091.49
79324	38052.344
80953	38016.37
70555	37991.574
25153	37989.086
65009	37993.297
79514	38013.26
81651	38032.184
71101	38043.38
25214	38048.47
64588	38029.25
79148	38000.11
81230	37955.555
70649	37903.74
24738	37861.63
64720	37823.145
79534	37808.562
80979	37811.223
69964	37830.742
24173	37870.18
64579	37906.566
79851	37944.93
81579	37967.598
70925	37969.67
23227	37957.78
62461	37918.92
79819	37872.062
81196	37815.594
70223	37758.637
23514	37717.15
63350	37680.73
79530	37664.97
81148	37659.145
70071	37660.543
23319	37672.64
63310	37675.703
79471	37680.37
80955	37676.414
69872	37666.305
23353	37662.438
63170	37654.645
79721	37661.83
81468	37678.18
70639	37705.723
23676	37751.52
62890	37796.67
79807	37848.98
81294	37892.52
70962	37921.586
24043	37939.895
62976	37929.766
80071	37905.04
81429	37858.914
71413	37796.06
24478	37730.645
62806	37653.61
80495	37584.29
81951	37518.547
71685	37460.945
24373	37423.387
62400	37393.105
80034	37385.27
81449	37390.918
71178	37409.914
23717	37448.938
61969	37489.62
80093	37541.09
81841	37589.164
71554	37628.574
23565	37663.43
61319	37675.57
79983	37677.535
81031	37662.29
70936	37634.543
23807	37609.93
61324	37581.67
79186	37571.617
80939	37577.863
72194	37604.49
25184	37661.547
61003	37731.54
79041	37822.203
80919	37916.125
72638	38002.906
26099	38081.61
61039	38129.324
79449	38153.27
80589	38141.754
72860	38094.547
26976	38023.855
61267	37921.84
78870	37810.633
80706	37691.37
74021	37573.477
27450	37476.02
60884	37393.656
78987	37346.727
80544	37330.69
74088	37345.67
28217	37398.05
60699	37467.945
78734	37560.36
79837	37656.35
73933	37743.773
28390	37821.4
60872	37867.387
78958	37890.875
80569	37883.027
75204	37846.22
28670	37796.78
60749	37729.79
78909	37668.223
80369	37611.695
74236	37564.418
28283	37537.65
60499	37515.617
78981	37507.363
80931	37498.29
74971	37480.824
29198	37459.062
60938	37416.41
79164	37367.07
80856	37306.01
75206	37236.9
29676	37174.82
60359	37111.508
79639	37064.32
80923	37026.895
75597	36997.004
30153	36981.5
60493	36963.656
79516	36954.188
80878	36943.375
75336	36929.7
29523	36924.242
59921	36916.055
78930	36921.566
80195	36935.105
74803	36955.688
28919	36991.4
59316	37025.855
79328	37068.57
80701	37108.12
75456	37140.46
28776	37174.668
59050	37198.56
79159	37228.86
80089	37262.418
75062	37301.727
28672	37359.074
58604	37420.195
79301	37494.465
80158	37567.934
74723	37630.574
28544	37683.188
58631	37704.53
79478	37703.637
80716	37673.145
75405	37615.547
28751	37548.035
58633	37466.496
79735	37393.21
81071	37327.93
75207	37272.504
28634	37235.953
58079	37200.727
79291	37173.426
80938	37139.773
75591	37093.055
28812	37041.41
58248	36974.047
80034	36910.418
80956	36852.68
75878	36809.16
29326	36797.914
58080	36810.406
79470	36859.98
80954	36934.457
75699	37022.35
29089	37121.773
57518	37207.793
79136	37284.367
80303	37339.848
75919	37372.867
29043	37398.574
57222	37411.92
79526	37435.047
80551	37468.707
75626	37514.895
28983	37582.688
56906	37653.086
78871	37729.453
80178	37794.03
75763	37834.965
29273	37856.156
56150	37843.25
79331	37813.34
81171	37768.914
76164	37720.617
29758	37690.926
55893	37677.332
78719	37697.55
80548	37744.04
76389	37808.23
30174	37889.31
56557	37961.086
79864	38023.56
80403	38061.137
76302	38067.58
30107	38054.805
55646	38017.05
79529	37977.316
80640	37941.26
76495	37917.36
30604	37922.867
55331	37947.78
78687	38002.33
80264	38073.883
76387	38151.75
31069	38237.34
56028	38310.97
79486	38380.668
80208	38438.46
77056	38482.652
31644	38525.316
55255	38555.746
78612	38586.43
80212	38608.69
76794	38614.574
31454	38607.918
54811	38570.64
78718	38511.37
79938	38423.848
76359	38310.125
31428	38189.28
54504	38061.645
78630	37952.773
79879	37868.19
76633	37812.58
31527	37797.57
54658	37806.09
79466	37839.36
80361	37876.69
76581	37899.895
31940	37905.76
54593	37874.48
79241	37817.38
79928	37735.2
77341	37637.46
32391	37550.594
53576	37479.3
78440	37448.63
79623	37459.74
77136	37508.598
32408	37596.777
53758	37697.516
78757	37804.562
80202	37894.35
77286	37949.555
31971	37972.71
53213	37952.2
78443	37907.477
79088	37846.56
76938	37782.152
32210	37739.918
52784	37719.824
79343	37738.664
80366	37789.383
77438	37860.145
32667	37947.668
52891	38025.004
78966	38089.312
80378	38124.586
77820	38121.824
33203	38092.094
52068	38030.23
78255	37957.277
79451	37879.355
77349	37803.23
32312	37746.562
51863	37700.99
78605	37676.51
79535	37664.207
77181	37654.22
32327	37650.2
51879	37635.074
79202	37616.574
80054	37590.3
77835	37555.043
32882	37525.504
51364	37494.85
78918	37477.31
79059	37471.367
77154	37474.09
33026	37494.42
50715	37518.305
78577	37552.65
79486	37590.594
77395	37626.28
33169	37668.69
50776	37705.566
78352	37746.367
79764	37786.36
78303	37820.133
34013	37855.645
50858	37877.95
78439	37893.15
79150	37894.55
77728	37876.863
34229	37851.12
50750	37808.824
78509	37765.3
79383	37723.88
77468	37688.13
34306	37674.63
50363	37676.31
78119	37704.0
79642	37751.727
78132	37809.96
34688	37880.984
49736	37944.48
78501	38000.484
79556	38037.816
77941	38047.09
34601	38036.11
49671	37994.38
78601	37934.363
78894	37858.73
77533	37770.28
35142	37686.758
49842	37604.652
78583	37539.695
79278	37494.336
77924	37468.266
35473	37473.332
49468	37498.4
78441	37549.64
79296	37618.977
78456	37695.047
35859	37779.61
49403	37852.72
78622	37914.848
79347	37956.305
78071	37968.742
35984	37961.75
48599	37927.91
78466	37882.332
78844	37830.766
78338	37777.36
36078	37740.01
48643	37712.883
78288	37705.598
79103	37712.348
78606	37721.402
35848	37734.34
48168	37731.51
78084	37714.504
79127	37677.363
78403	37617.16
35826	37551.09
47831	37479.83
78646	37425.03
79983	37397.113
79219	37401.055
36750	37451.332
47648	37535.324
78421	37651.617
79776	37782.125
79191	37902.742
36663	38003.688
47326	38057.844
77790	38062.16
79298	38010.746
79035	37903.492
36930	37763.58
47161	37599.715
78702	37441.418
78909	37307.582
78241	37210.215
37039	37169.52
46731	37177.824
78110	37236.98
79263	37331.812
78765	37439.285
37307	37549.758
46266	37634.965
77851	37688.395
79083	37699.996
78680	37663.418
37473	37594.516
46459	37494.965
77720	37387.453
78854	37286.02
78667	37199.887
37126	37149.875
45976	37131.992
77859	37153.918
79114	37209.06
78335	37283.0
36912	37373.96
45391	37460.312
77698	37538.285
78937	37598.316
78648	37630.336
37793	37643.24
45467	37630.125
77853	37603.29
78711	37568.336
78884	37526.484
38664	37494.1
45812	37466.414
78121	37453.04
79466	37453.254
79243	37459.98
39261	37480.016
45747	37500.46
78387	37524.01
78923	37545.992
79058	37557.516
39524	37565.773
44874	37560.67
77602	37548.492
78761	37529.33
79573	37499.49
39684	37472.125
44605	37442.363
77714	37420.61
78806	37410.51
79054	37409.688
39519	37429.707
44273	37461.773
77808	37509.69
78907	37568.637
79046	37626.668
39425	37686.46
44114	37732.44
77656	37764.727
79019	37779.516
78999	37770.3
39446	37749.04
43812	37711.953
77622	37671.18
78553	37633.29
78966	37597.684
39318	37577.6
43506	37565.094
77571	37563.28
78420	37567.426
78712	37565.4
40116	37561.453
43032	37543.406
77077	37515.844
79049	37481.406
79693	37439.742
40446	37408.434
42905	37387.617
77293	37389.58
78313	37418.93
79144	37469.402
40529	37546.227
42439	37632.906
77328	37723.56
78843	37806.625
78964	37865.22
40183	37901.434
42444	37903.66
77686	37878.01
78678	37830.824
79125	37763.95
40210	37696.79
42127	37630.438
77263	37576.754
78476	37540.15
79231	37514.258
40186	37505.9
41787	37502.09
77681	37501.66
78545	37500.875
79094	37489.895
40906	37477.13
41358	37455.883
77056	37433.312
78432	37413.86
79265	37393.715
41071	37384.27
41228	37377.926
77219	37377.4
78233	37380.832
79214	37377.543
41703	37373.445
41560	37358.324
77743	37335.18
78268	37305.92
78988	37265.19
42147	37225.062
40543	37181.51
76631	37141.332
78328	37108.703
79505	37078.652
42760	37062.258
40488	37054.273
76789	37060.004
78314	37082.94
79730	37117.598
42419	37174.555
40076	37246.71
76828	37335.8
78541	37439.95
79620	37546.06
42609	37655.78
40266	37753.402
77869	37833.617
79295	37891.582
79908	37916.21
42650	37916.297
39567	37888.176
76854	37841.004
79118	37784.94
80009	37721.883
43161	37668.85
39497	37624.742
77182	37594.676
78968	37580.234
80375	37570.402
43970	37569.19
39893	37564.766
77126	37555.56
79173	37541.81
80186	37516.477
43899	37491.504
39500	37464.62
76636	37442.44
78926	37430.305
80118	37421.79
43425	37424.51
38943	37427.99
77408	37428.668
79336	37423.457
80411	37400.54
43663	37367.27
38571	37318.723
77118	37261.566
78624	37206.08
80221	37153.023
44374	37119.52
38802	37105.176
77126	37114.027
78391	37147.617
79293	37192.652
44401	37249.855
37929	37303.86
76416	37347.445
78227	37377.24
79648	37382.246
44571	37371.984
37584	37344.45
76088	37307.38
77668	37271.234
79511	37234.406
44156	37210.418
37124	37195.344
76306	37189.727
78198	37194.17
79536	37196.58
44485	37201.598
36947	37200.31
76417	37192.246
77638	37181.59
79455	37161.9
44988	37144.5
36774	37126.668
75712	37111.547
77405	37103.83
79181	37095.082
45353	37092.36
36794	37088.406
76031	37082.477
77783	37077.754
79062	37066.23
45494	37058.195
36194	37051.0
75458	37047.758
77325	37054.727
79248	37064.805
45728	37086.145
36133	37112.125
75481	37140.492
77396	37172.184
78537	37195.816
45417	37217.156
35046	37229.95
74509	37234.203
77414	37234.547
79291	37224.195
46302	37213.047
35254	37197.95
74613	37180.383
76995	37165.85
78610	37147.016
45608	37133.7
34746	37123.348
74614	37118.754
76904	37127.11
78848	37142.51
46130	37174.742
34124	37219.383
74226	37273.78
76864	37337.92
78809	37396.875
46391	37451.746
34380	37491.61
74184	37511.363
76564	37514.195
78416	37493.9
46478	37464.46
34091	37430.652
74252	37401.957
76422	37392.88
78289	37401.684
46388	37439.344
33286	37499.805
74118	37574.953
76610	37659.582
78375	37732.85
46444	37791.133
33114	37821.59
74207	37818.652
76492	37788.992
78304	37730.074
46702	37660.156
32912	37587.81
73809	37523.695
76406	37482.87
78562	37461.93
47374	37469.332
32726	37497.523
73726	37537.383
76510	37584.727
78435	37621.168
47686	37646.613
32590	37652.94
73721	37637.42
76229	37607.812
78572	37559.574
47913	37506.22
32188	37449.98
73276	37393.387
76230	37344.246
78049	37293.8
47879	37248.363
32018	37202.914
73508	37153.547
76878	37105.586
78444	37051.33
47803	37000.96
31583	36955.242
72897	36916.473
75944	36894.42
78474	36881.95
48418	36886.87
31628	36903.92
73157	36926.55
76257	36955.56
78643	36975.953
49081	36990.29
31458	36992.965
72890	36980.89
76194	36962.11
78823	36930.965
49628	36900.293
31567	36873.324
73548	36852.527
76416	36847.75
78086	36850.844
49280	36867.89
31409	36892.566
73571	36917.21
76004	36942.4
78068	36952.83
49308	36951.273
30658	36933.086
72669	36895.133
75818	36846.617
77653	36782.64
49496	36716.277
30503	36651.953
72376	36592.832
75943	36550.43
78239	36517.97
49665	36503.156
30291	36501.87
72614	36506.83
76344	36519.56
77954	36524.914
49816	36525.17
30023	36514.97
72324	36489.207
75991	36456.07
77613	36409.453
49914	36361.13
29739	36315.258
72169	36273.78
75941	36248.723
78329	36233.188
50595	36234.55
29834	36248.965
72349	36268.47
75721	36295.04
78216	36312.92
50959	36323.773
29605	36322.45
72073	36303.727
75990	36276.152
78330	36233.207
50790	36186.754
29344	36141.273
72080	36098.082
76196	36068.9
78187	36046.43
52059	36037.01
29829	36037.688
72093	36041.02
76215	36050.785
78593	36053.586
52423	36053.402
29538	36048.816
71424	36036.793
75530	36028.04
77415	36016.863
52506	36013.39
29453	36020.156
71109	36034.42
75670	36063.44
78155	36094.92
52803	36130.715
29134	36164.99
71326	36188.227
75953	36204.39
77709	36201.535
52868	36186.133
29017	36160.36
71778	36124.11
76039	36091.2
77632	36057.113
53364	36032.27
28841	36018.855
71249	36012.258
75464	36018.746
77386	36024.773
53352	36031.97
28933	36036.168
71316	36029.35
75650	36019.05
77928	35996.527
53596	35971.227
28404	35947.926
70601	35926.723
75333	35921.09
77472	35924.562
54266	35944.54
28873	35980.445
71160	36024.492
75681	36081.34
78045	36136.203
54631	36190.434
28517	36240.816
70790	36279.586
75414	36314.547
76924	36335.54
53588	36348.965
27541	36355.57
70769	36349.438
75598	36338.812
77803	36312.24
53621	36274.31
27094	36224.43
70279	36156.72
75612	36082.293
77972	35995.164
53636	35907.574
26848	35827.695
69489	35757.36
74821	35712.754
77127	35688.582
54094	35692.312
27073	35722.58
69809	35767.594
75639	35827.812
78298	35882.96
54801	35928.64
26933	35957.39
70234	35957.395
75520	35936.926
77477	35889.38
54991	35827.406
26516	35762.285
69574	35698.664
75503	35656.555
77489	35634.086
54852	35640.875
26582	35677.56
69558	35732.562
75246	35806.688
77118	35878.977
54417	35943.793
25868	35992.7
69336	36012.645
75235	36011.664
77748	35982.6
54861	35938.68
25361	35892.062
69194	35847.81
75768	35827.1
77762	35828.844
55159	35862.883
25322	35930.008
68959	36016.562
75239	36121.496
77693	36220.887
55326	36305.71
24896	36364.883
69083	36381.914
75351	36363.547
77259	36302.223
54148	36212.207
24249	36108.324
68571	35998.53
75017	35908.49
77029	35840.58
54862	35808.27
24286	35815.316
68174	35850.0
74947	35913.29
77314	35982.44
55561	36049.64
24321	36105.57
68566	36134.64
75221	36144.957
77463	36129.0
55664	36099.06
23600	36066.92
68028	36033.89
75335	36017.895
77176	36012.28
55034	36021.438
23432	36042.297
67796	36058.516
75446	36071.965
77639	36065.547
56155	36041.21
24018	36003.27
68010	35950.164
75099	35903.418
77297	35864.953
56844	35850.758
24274	35870.816
68022	35918.375
75598	35998.82
77949	36090.44
57491	36182.473
24414	36260.766
67886	36301.973
75696	36307.09
77758	36263.363
57688	36180.723
23958	36074.22
67877	35951.45
75491	35841.047
77504	35747.984
58118	35686.574
24474	35662.42
67761	35661.676
76103	35684.28
77904	35705.47
58660	35715.145
24822	35705.367
67849	35662.066
75431	35598.29
77495	35512.688
59544	35423.957
24664	35352.22
67136	35304.082
75516	35301.49
77526	35338.637
59056	35416.586
24245	35528.695
67392	35650.348
75326	35775.25
77150	35876.73
59570	35946.02
24128	35979.94
66517	35969.03
74974	35930.02
77730	35862.332
60328	35781.797
24773	35704.082
67254	35629.125
75708	35573.92
77456	35529.938
60149	35499.2
24731	35481.754
66949	35463.43
75686	35451.48
77828	35433.277
60318	35412.543
23915	35395.324
66259	35375.348
75886	35367.58
77559	35364.887
60067	35372.844
23814	35395.066
66596	35419.344
75554	35453.13
77641	35480.863
60526	35500.645
23250	35511.61
66185	35499.527
75688	35473.21
78063	35421.52
60018	35349.387
22360	35264.707
65281	35162.168
75428	35060.082
77120	34956.375
59472	34863.28
22376	34793.176
65818	34742.242
75527	34726.67
76994	34737.824
60776	34776.508
22564	34841.83
65206	34914.047
75746	34993.9
77787	35060.4
60980	35107.332
22431	35132.85
64589	35123.63
75720	35092.938
77981	35036.758
60541	34967.7
21958	34901.316
64131	34837.305
75449	34795.805
77908	34772.22
61074	34772.125
21501	34799.598
64027	34839.684
75846	34898.754
78054	34961.52
61338	35026.99
21827	35097.773
63819	35161.65
75317	35230.29
77053	35294.363
61741	35357.043
22130	35422.848
64023	35478.45
75464	35532.316
77428	35570.805
61887	35593.81
21799	35605.504
63970	35595.31
76016	35578.594
77516	35551.69
62147	35525.375
21823	35513.21
63259	35510.71
75561	35533.97
77803	35574.066
62597	35631.375
21883	35706.04
63403	35778.785
75959	35852.824
77343	35910.465
62968	35948.543
22284	35969.977
63071	35963.773
75662	35944.38
77058	35906.613
63418	35858.168
22407	35810.152
62507	35755.805
75258	35709.86
77182	35664.344
63399	35622.723
22739	35591.87
63001	35561.926
75155	35546.93
77508	35539.805
64287	35545.973
22860	35574.207
62834	35614.574
75338	35678.51
77275	35752.785
64415	35833.707
22526	35920.066
62378	35991.44
75370	36051.41
77204	36083.45
64147	36085.723
22640	36064.418
62451	36011.574
75516	35946.34
77121	35868.312
64675	35789.805
23090	35727.004
62329	35676.027
75419	35653.36
77073	35649.504
65556	35662.652
23393	35692.51
62832	35718.457
75963	35742.883
77109	35746.89
64873	35724.934
23069	35679.76
62044	35599.926
75486	35501.832
77170	35383.434
65713	35256.83
23653	35140.56
62173	35035.016
75624	34963.016
77134	34922.098
66199	34917.062
24013	34953.58
62474	35014.82
76061	35103.8
77516	35198.73
65879	35288.305
23720	35367.242
61853	35414.336
75490	35436.168
77356	35421.582
65779	35375.527
23426	35312.184
61653	35230.152
75718	35153.375
77076	35082.844
65908	35028.332
23793	35001.49
61905	34991.15
75796	35006.66
76915	35031.824
66398	35059.465
24060	35088.316
61378	35100.395
75691	35104.484
77214	35090.87
66497	35064.004
24061	35037.016
61439	35005.777
75382	34990.24
77134	34986.13
66047	34997.438
23830	35030.19
60932	35068.344
75463	35117.918
77034	35161.855
66672	35194.164
23967	35217.094
60809	35217.06
76098	35208.27
77480	35186.324
66339	35159.43
23709	35142.426
60670	35129.918
75728	35138.87
77586	35160.555
67231	35193.195
23512	35238.59
60119	35276.684
75487	35312.074
77334	35328.777
67966	35323.562
24481	35304.0
60118	35261.79
75628	35216.42
77461	35167.55
67483	35125.402
24549	35105.617
60759	35100.984
75984	35126.035
77232	35169.742
68208	35227.215
25060	35298.54
60254	35362.984
75921	35425.176
77538	35469.645
69165	35492.895
25386	35501.957
59891	35485.97
75565	35461.098
77379	35423.06
69523	35377.277
26221	35336.68
59912	35293.63
75966	35264.684
77699	35244.074
69933	35234.54
26614	35246.098
59923	35267.816
76078	35312.066
77651	35368.582
69775	35434.164
26644	35511.703
59776	35582.453
76544	35651.453
77706	35702.69
69996	35729.984
26329	35738.07
59568	35714.902
76746	35676.99
77774	35623.29
69440	35564.19
25793	35519.258
59234	35486.816
76871	35487.504
77612	35516.656
69293	35573.12
25578	35658.84
58626	35751.64
76408	35851.586
78158	35937.03
70223	35996.496
25591	36030.64
58003	36024.34
76361	35991.637
77290	35930.09
70085	35848.46
26113	35765.93
58191	35680.535
76343	35613.414
77881	35561.832
70214	35528.074
25879	35520.16
57495	35523.31
76111	35545.883
77758	35575.137
70951	35606.12
25928	35643.7
57573	35673.062
76063	35704.43
77501	35727.67
70197	35740.305
25636	35748.984
57403	35739.766
76280	35724.5
77748	35694.97
70232	35652.066
25287	35607.45
56999	35553.477
76461	35508.082
77329	35469.086
70243	35440.254
25564	35433.27
56749	35436.14
76198	35459.23
77579	35490.16
70228	35522.266
25849	35557.832
56689	35578.953
76419	35594.23
77744	35594.45
71298	35579.695
26678	35562.4
56524	35535.344
76243	35516.277
77669	35502.367
71388	35495.77
27292	35506.484
56722	35521.902
76332	35552.47
77061	35587.652
71009	35622.938
27195	35664.625
55981	35699.094
76025	35738.02
77071	35774.36
71518	35807.293
27783	35846.523
56530	35879.87
76133	35919.23
77370	35956.12
71993	35987.566
28356	36021.184
56224	36044.3
75981	36069.617
76916	36091.266
72033	36110.285
28795	36138.207
56231	36165.547
76001	36206.34
77179	36253.543
71743	36304.383
28581	36364.87
55846	36418.996
75547	36475.04
76719	36522.25
72199	36556.297
28758	36585.324
55349	36598.13
76031	36608.633
77290	36612.402
72277	36610.242
28948	36612.832
55346	36608.598
76021	36608.508
77468	36603.32
72691	36588.49
28683	36570.723
54693	36535.938
76266	36495.746
77401	36444.87
72263	36384.613
28265	36328.6
54010	36269.53
75787	36223.223
77210	36185.832
71933	36156.93
27760	36145.137
53920	36135.883
76607	36137.254
77356	36139.203
72119	36136.67
27723	36136.906
53318	36126.844
76209	36118.527
77200	36107.445
72293	36094.008
27529	36089.996
52917	36084.75
75839	36089.938
77132	36098.12
72194	36105.086
27140	36117.16
52443	36118.82
76043	36118.348
76766	36107.613
72278	36083.87
27213	36057.805
52546	36019.332
76648	35982.57
77582	35944.777
72772	35906.863
27605	35880.746
52457	35854.92
76938	35839.58
77181	35827.38
72729	35813.387
27564	35804.8
51899	35787.363
76298	35771.008
77346	35750.586
73309	35726.168
28021	35711.477
51272	35699.5
75971	35705.766
77132	35728.51
73113	35767.676
27911	35832.926
51154	35909.133
76295	36001.14
77528	36095.28
72811	36179.89
27607	36255.676
50698	36303.082
76178	36327.566
77004	36322.13
72589	36286.79
27384	36237.367
50401	36170.62
76061	36107.65
76944	36053.285
72726	36013.707
28030	36004.55
50095	36016.027
75450	36057.13
77007	36117.613
73493	36187.51
28690	36268.246
50328	36340.004
76110	36406.375
77623	36457.426
74114	36488.6
29542	36510.215
50056	36512.78
76025	36509.266
77167	36497.664
73311	36477.723
29320	36460.527
50147	36434.81
76417	36410.586
77551	36383.203
74062	36350.406
28944	36324.04
49070	36295.062
76133	36276.85
77875	36268.695
74170	36271.113
28554	36296.19
48774	36331.566
75803	36383.883
76944	36443.36
73929	36499.59
28741	36554.6
48269	36588.688
76292	36604.863
77435	36595.004
74089	36555.336
29422	36498.582
48881	36418.266
76829	36331.18
78134	36241.164
74898	36152.63
31056	36082.04
48948	36022.484
76495	35985.184
78158	35965.23
75588	35956.45
31400	35964.844
48801	35974.367
76558	35989.004
77975	35999.676
74808	35998.625
31043	35992.297
48224	35967.31
75906	35932.016
77403	35882.8
75220	35817.69
30672	35750.445
47639	35674.73
76790	35605.254
77673	35545.082
75168	35497.09
30476	35477.016
47382	35477.32
76517	35507.906
77684	35563.227
74731	35634.453
30704	35723.87
47038	35810.91
76321	35894.848
77675	35963.336
74902	36006.28
30352	36030.547
46515	36025.31
76249	36002.734
78118	35965.234
75093	35916.434
30119	35873.848
46481	35832.293
76331	35804.324
77294	35787.76
74540	35777.195
30393	35779.496
45992	35779.355
76231	35780.863
77149	35777.35
74702	35762.51
31149	35745.727
45851	35717.008
75770	35686.094
76887	35651.336
74716	35609.555
30744	35571.324
45536	35525.54
75859	35480.043
77326	35432.023
74429	35378.75
30663	35333.207
44961	35289.2
76320	35260.367
77621	35250.355
75208	35260.473
31493	35304.402
44905	35371.93
75754	35467.15
77231	35580.28
74701	35696.97
30905	35815.92
44406	35915.05
75868	35992.727
76974	36041.164
75244	36055.05
31766	36048.344
44336	36018.207
75547	35981.6
77584	35946.055
75599	35915.438
32779	35904.69
44661	35903.926
76142	35916.387
77690	35932.6
75893	35939.18
32992	35937.277
44222	35910.09
75647	35861.492
76703	35790.86
75245	35699.676
32726	35607.566
43367	35516.125
75090	35444.043
76653	35399.855
75156	35386.203
32891	35416.438
43221	35480.047
74901	35579.47
77096	35705.758
75490	35845.914
33006	36001.113
43323	36152.98
75793	36300.875
77138	36437.11
75711	36551.63
33666	36650.094
43360	36719.098
75265	36762.367
76775	36776.473
75636	36755.785
33701	36711.688
42801	36638.555
75433	36549.273
77075	36450.87
75666	36347.84
33333	36260.055
42386	36186.19
75541	36138.08
76639	36116.344
75765	36113.074
33989	36132.285
42273	36155.758
75656	36180.125
76794	36195.45
75416	36190.094
34044	36171.035
41593	36130.37
75123	36079.363
76723	36024.375
75451	35968.195
33814	35928.17
41273	35899.582
74859	35889.83
76269	35895.277
75184	35904.348
33797	35919.35
40735	35923.223
74422	35915.94
76566	35893.3
75751	35849.91
34044	35800.07
40547	35741.316
74710	35687.465
76294	35644.98
75351	35613.133
33902	35603.5
40175	35604.633
74530	35616.83
76095	35632.19
75453	35636.95
33991	35634.742
40349	35612.883
75020	35577.69
76493	35533.473
75199	35482.125
34862	35442.508
40028	35414.965
74684	35411.754
76410	35435.293
76036	35477.387
35640	35541.2
40401	35607.793
74913	35670.633
76424	35717.824
76131	35733.8
35994	35723.47
39855	35678.867
74635	35611.133
76051	35530.824
75383	35445.45
35586	35378.84
39303	35335.367
74763	35329.586
76457	35366.273
75393	35438.61
35605	35549.82
39492	35680.867
74953	35823.24
76648	35962.97
75813	36080.156
36185	36172.85
39008	36225.074
74604	36237.355
76518	36210.4
76068	36141.793
36361	36048.176
38797	35930.426
75093	35803.484
76608	35678.58
75669	35559.184
36355	35462.91
38545	35388.168
74363	35343.656
76373	35331.535
75953	35344.06
36889	35387.168
38701	35447.242
74618	35521.94
76329	35604.76
76011	35681.406
37575	35754.71
38564	35811.87
74253	35854.086
75919	35881.07
76161	35886.457
37661	35881.617
38211	35862.1
74580	35835.125
76330	35805.613
75993	35770.08
37749	35740.324
37703	35710.88
74109	35687.19
75924	35671.914
76059	35659.01
37185	35658.15
37052	35661.637
74090	35671.895
76397	35688.35
76030	35701.344
36699	35716.477
36633	35721.67
73875	35716.26
75522	35698.734
75818	35659.85
37338	35609.227
36619	35541.668
74191	35465.035
76055	35387.184
76366	35307.53
38319	35241.645
36908	35187.35
74471	35150.598
76496	35133.695
76379	35127.09
38813	35135.523
36881	35146.438
74228	35157.355
75943	35165.625
76007	35160.746
38661	35150.53
36345	35129.08
74050	35102.297
75830	35076.08
76198	35046.78
38783	35027.066
35851	35012.652
74053	35007.7
76020	35014.87
76966	35026.125
39195	35050.25
35508	35080.34
73813	35118.83
75859	35168.535
76500	35222.105
39344	35288.26
35346	35358.91
73473	35433.57
75816	35510.043
76066	35574.938
39253	35630.566
35115	35664.5
73653	35674.35
75477	35660.812
76083	35616.83
39442	35555.547
34186	35477.965
73139	35395.254
76223	35320.035
76503	35253.957
39929	35212.953
34855	35195.04
73709	35202.945
75568	35236.938
75790	35283.484
40198	35343.895
34355	35404.184
73393	35458.754
76019	35505.04
75975	35532.055
40286	35547.31
34068	35546.273
73292	35533.348
75901	35515.812
76614	35489.7
40631	35467.395
34068	35445.85
73467	35428.082
76010	35418.445
76738	35408.89
40911	35408.113
33668	35409.918
73271	35415.09
76222	35427.08
76922	35437.93
41396	35456.125
33671	35475.88
73264	35497.414
75944	35523.203
76588	35543.57
41431	35564.895
32976	35579.824
73188	35587.164
75986	35589.516
76574	35578.2
41566	35562.1
32903	35537.19
72801	35505.848
76281	35473.895
76819	35435.246
41446	35399.82
32598	35362.85
72983	35324.26
76151	35286.902
76998	35240.805
41666	35192.918
32636	35137.21
72697	35074.625
76061	35011.69
76861	34944.34
41408	34887.492
31976	34843.28
72562	34819.254
75834	34826.305
76852	34859.93
41792	34929.6
31920	35027.293
73133	35145.62
76011	35278.895
76706	35406.145
43101	35522.535
32223	35612.05
72438	35666.27
75762	35685.723
76653	35662.844
43741	35611.484
32193	35536.875
72638	35450.55
75695	35369.555
77073	35296.12
43938	35246.082
31538	35219.246
72664	35214.97
75759	35234.53
76349	35263.08
43168	35301.156
30847	35337.27
72446	35364.793
75834	35384.82
76523	35387.113
43011	35380.117
30731	35361.324
72263	35332.355
75793	35300.547
76983	35258.88
43523	35216.824
30586	35171.367
72401	35122.242
76738	35075.996
77615	35026.25
44076	34984.35
30519	34950.098
72246	34926.11
75916	34920.777
76813	34927.004
44236	34952.22
30310	34989.895
72159	35033.605
75743	35082.74
76936	35121.74
44658	35152.703
30569	35168.023
72284	35164.63
76034	35149.85
77631	35118.684
45429	35085.145
29854	35053.08
71819	35027.29
75833	35018.527
77423	35020.47
45674	35041.082
30018	35074.93
72417	35115.848
76286	35164.676
77489	35207.363
45036	35247.633
29324	35279.895
71646	35301.3
75341	35319.027
76563	35325.91
44754	35332.15
28964	35337.027
71281	35339.535
75959	35345.77
77011	35345.625
44868	35344.934
28770	35338.535
71470	35322.18
75823	35301.39
77210	35267.73
46071	35231.06
28744	35192.492
71366	35153.652
75462	35125.586
77320	35102.996
46226	35096.14
28786	35102.938
71504	35119.25
75702	35148.24
77388	35175.836
45910	35204.242
28610	35225.32
71437	35231.54
75143	35226.906
77394	35201.027
46781	35163.004
28148	35114.164
71116	35056.94
75417	35004.527
77849	34953.99
47641	34918.543
28359	34900.617
71369	34899.684
75421	34922.758
77136	34958.016
46870	35008.91
27991	35067.812
70998	35125.734
75666	35184.363
76837	35230.324
46892	35268.664
27473	35297.246
70756	35313.95
75429	35328.742
77290	35335.01
47531	35342.47
27574	35350.363
71708	35353.953
76043	35357.938
77246	35348.6
47674	35328.402
27183	35291.645
71146	35232.13
76287	35158.105
77301	35064.637
47636	34966.906
26770	34873.977
70704	34793.582
75858	34744.434
77594	34725.176
48213	34747.312
26656	34807.957
70682	34896.207
76082	35008.34
78085	35120.336
48837	35224.383
26967	35306.055
70352	35352.016
75736	35366.266
78006	35341.37
49138	35292.01
26849	35228.508
70703	35159.465
76193	35104.98
77761	35064.85
49233	35051.227
26659	35063.535
70608	35093.062
75864	35141.094
77441	35189.867
49474	35238.543
26369	35281.258
70356	35311.23
76521	35337.43
78168	35353.418
49927	35370.156
26291	35390.4
70428	35410.094
76176	35435.598
77852	35452.19
50216	35459.39
26401	35449.223
70444	35410.08
76273	35346.95
77419	35251.15
50840	35134.727
26411	35007.367
69514	34876.754
76008	34764.61
77519	34673.207
51699	34617.094
26968	34599.758
70369	34614.27
75851	34662.938
77293	34726.23
51935	34799.117
26972	34871.26
70471	34929.395
76002	34977.832
77850	35005.914
52276	35022.062
26114	35030.8
69266	35031.184
76057	35035.605
78217	35035.83
51699	35037.9
25654	35040.164
69721	35034.008
75781	35026.332
77734	35006.74
51581	34983.19
25440	34960.312
69308	34938.445
76021	34933.15
77850	34940.02
52251	34967.84
25831	35016.047
69920	35073.71
75901	35141.027
77284	35197.05
52757	35235.785
25979	35248.03
69785	35222.13
75869	35166.77
77519	35077.21
52489	34969.88
25363	34859.594
69615	34755.95
76348	34682.8
78006	34640.977
53194	34641.938
25399	34686.066
69283	34760.086
75986	34861.773
77873	34966.742
53406	35065.68
25359	35146.62
68909	35193.574
75323	35212.15
77706	35193.35
53323	35149.105
25018	35089.926
68605	35020.15
76033	34960.367
78020	34909.516
53758	34879.14
24673	34873.07
68789	34883.164
75532	34915.51
76958	34954.496
53498	34999.527
24846	35046.703
68993	35085.2
75986	35122.945
77366	35149.504
54868	35170.94
25043	35190.523
68204	35202.9
75225	35218.844
77666	35227.945
55666	35234.1
25296	35237.684
68621	35230.293
75635	35221.273
78334	35200.72
55598	35175.836
25046	35152.145
68326	35126.863
75655	35115.004
77625	35110.504
55244	35121.223
24491	35149.64
68669	35186.105
75672	35236.613
76873	35284.902
55075	35329.008
24398	35364.402
67927	35378.75
75357	35380.395
77209	35360.027
55594	35326.523
24281	35288.457
67999	35245.926
75588	35217.5
77385	35199.598
55618	35201.594
24144	35227.105
67752	35266.81
75898	35326.805
77571	35390.69
56367	35456.316
24483	35519.812
68009	35568.34
75744	35609.414
77696	35631.85
56906	35640.707
24671	35640.344
68181	35624.8
76053	35606.445
77946	35575.62
57081	35537.023
24445	35493.03
67846	35435.37
75671	35375.914
77554	35306.773
57481	35236.555
24120	35173.86
67390	35116.98
75568	35083.043
77878	35066.555
57279	35074.363
23459	35108.453
67185	35156.168
75814	35221.16
78057	35284.094
56900	35340.758
23189	35386.348
67155	35407.418
75918	35414.086
77481	35399.043
57401	35372.867
23668	35346.633
67638	35319.996
76203	35311.383
77659	35314.625
57534	35334.63
23508	35371.137
66580	35408.89
75476	35450.785
77300	35478.24
57839	35488.67
23051	35481.996
66090	35449.465
75388	35405.96
77624	35347.668
57748	35286.938
22634	35235.22
66501	35189.594
76038	35165.094
77771	35151.58
58218	35150.445
22973	35160.484
66688	35166.547
76108	35174.637
77968	35170.625
58621	35157.04
22568	35139.29
65999	35111.906
75957	35091.707
77991	35074.11
58586	35068.22
22508	35081.344
66103	35105.355
76180	35150.887
78028	35204.816
58718	35266.9
22891	35336.31
66534	35399.19
76374	35463.74
77674	35517.34
58569	35562.117
22841	35600.688
66303	35622.676
76004	35638.918
77947	35638.01
60138	35622.215
22774	35595.113
65379	35546.95
75585	35490.66
77660	35418.58
59974	35338.64
22900	35260.88
65456	35181.848
75880	35119.492
77809	35068.684
60710	35035.656
22829	35025.848
65328	35027.656
76003	35049.188
77134	35075.29
60218	35103.594
23087	35134.12
65524	35153.9
75764	35174.246
77768	35186.527
60819	35197.36
22508	35216.473
64717	35238.168
75553	35277.996
77201	35327.715
59974	35389.566
21936	35465.113
64744	35538.19
76101	35614.223
77112	35676.555
60489	35722.562
22133	35753.703
64798	35758.0
76263	35748.965
77781	35720.496
60671	35681.125
21623	35641.816
64054	35596.875
75715	35562.12
77146	35529.484
60485	35501.33
21106	35480.56
63291	35453.55
75969	35429.297
77532	35395.965
60878	35356.44
21231	35318.22
62826	35274.797
75283	35243.707
77529	35220.664
61682	35213.246
21946	35229.71
63656	35259.02
75767	35309.8
77866	35365.312
61828	35419.535
21601	35468.395
63331	35491.598
76093	35494.37
77374	35463.477
61131	35402.633
21049	35322.59
63347	35220.97
75900	35121.383
77366	35026.062
61320	34948.938
20801	34904.586
62068	34887.008
75993	34909.098
77489	34957.844
61684	35028.87
21063	35118.562
62827	35205.18
75948	35290.934
77574	35357.74
61888	35402.613
20831	35428.87
62043	35425.984
75432	35409.848
76940	35376.688
61984	35335.797
20742	35300.594
61198	35266.465
75393	35250.777
77692	35246.734
62682	35257.45
21416	35287.754
62113	35322.74
75420	35370.043
76939	35414.58
62244	35453.406
21383	35488.68
62023	35505.977
75511	35517.06
77028	35513.44
62346	35500.215
20698	35487.414
61209	35467.164
76069	35455.543
77300	35445.84
62571	35441.496
21268	35448.297
61599	35452.832
75454	35465.27
77389	35473.52
63019	35477.906
21021	35484.234
60941	35481.445
75524	35484.008
77555	35484.977
63003	35489.137
21169	35504.914
61701	35520.285
75410	35545.77
77376	35567.508
63118	35581.688
21436	35588.523
61507	35570.477
75452	35536.92
77004	35478.086
63401	35399.37
21555	35314.62
61404	35221.824
75991	35144.72
77666	35084.5
64351	35050.84
22073	35054.66
61587	35082.812
75791	35141.977
76912	35212.418
63681	35282.754
21769	35346.15
61122	35378.348
75538	35383.797
76863	35349.848
63764	35280.207
21610	35189.035
61004	35075.043
75695	34964.047
77473	34859.598
63958	34774.316
21394	34722.727
60256	34695.777
75024	34705.68
76580	34739.043
64279	34791.05
21567	34861.688
60517	34931.926
75815	35009.38
77432	35080.95
64667	35145.582
21490	35208.695
60362	35256.45
75519	35299.613
76864	35325.9
64221	35332.914
21336	35324.348
59994	35285.348
76160	35228.348
77402	35147.113
65083	35049.355
21391	34952.17
59528	34854.844
75550	34782.09
77224	34734.992
64756	34721.066
21031	34748.77
59044	34800.348
75861	34877.816
77569	34957.58
64567	35024.785
20808	35071.95
58868	35075.93
75643	35045.418
77431	34974.418
65353	34874.242
21404	34768.184
58945	34661.836
75234	34585.61
76847	34543.68
65458	34543.703
21826	34592.13
58987	34667.766
75837	34768.82
77326	34868.883
65553	34951.39
21931	35010.316
59383	35025.516
76009	35009.86
76893	34961.33
65719	34892.527
21336	34825.97
58241	34763.24
75386	34727.914
76538	34716.562
65488	34729.12
20935	34767.63
57588	34809.965
75339	34858.035
77051	34893.625
65860	34911.695
21239	34919.113
57751	34906.266
75724	34892.574
77522	34877.44
65917	34868.496
21823	34877.89
58321	34893.14
75607	34923.61
77516	34954.36
65953	34978.715
21565	34998.492
57573	34997.49
75634	34989.688
77145	34971.992
66559	34953.168
21612	34951.473
57661	34962.465
75884	35004.0
77418	35067.92
66107	35149.426
21046	35246.79
56563	35333.934
74963	35410.5
77031	35457.062
65877	35467.73
20998	35450.203
56958	35396.562
75294	35329.55
77344	35252.727
66744	35178.043
21129	35123.426
55846	35080.78
74813	35062.66
76421	35056.33
66850	35054.215
21774	35056.91
56611	35045.05
75800	35028.266
76878	34999.26
66741	34962.54
21818	34933.668
56764	34907.22
75991	34902.34
77000	34914.195
67254	34941.406
21361	34987.938
55848	35032.98
75735	35080.5
76912	35114.92
66911	35130.72
21828	35135.12
55767	35117.645
75119	35096.938
76754	35072.38
67508	35050.664
21941	35045.285
55644	35044.66
75248	35059.117
76359	35075.375
67873	35085.207
22458	35090.19
55436	35072.27
75879	35042.18
77143	34994.41
67760	34934.42
22288	34879.51
55124	34825.945
75529	34793.85
77077	34780.254
68648	34784.49
22581	34811.92
55064	34842.926
75409	34882.07
76847	34914.31
68252	34934.047
22733	34949.137
54986	34949.918
75819	34955.234
77277	34965.42
68520	34986.805
22843	35032.62
54538	35089.53
75646	35164.13
77081	35238.62
68699	35298.105
22667	35337.18
53981	35331.055
75476	35285.09
76889	35192.0
68516	35058.54
22582	34908.164
54443	34746.848
75696	34607.28
77013	34500.76
67978	34439.758
22215	34439.293
54317	34483.95
75963	34576.117
76928	34693.137
68668	34815.15
22194	34933.758
53339	35021.965
75728	35083.484
76964	35109.918
68907	35104.992
22409	35087.613
53600	35056.39
75823	35034.715
77302	35023.684
68561	35025.35
22702	35046.703
53236	35068.25
75632	35092.633
77020	35102.582
69464	35088.55
22842	35055.4
53060	34990.453
75783	34910.867
76929	34818.645
69216	34723.316
22968	34644.848
52527	34578.508
74886	34540.496
76398	34523.652
69184	34522.03
23624	34537.67
52928	34549.715
75645	34563.137
76599	34567.21
69679	34560.02
23829	34554.574
52584	34544.594
75503	34549.44
76969	34569.234
69999	34606.555
23538	34671.168
51839	34746.027
75496	34834.453
77268	34918.89
69756	34986.492
23293	35036.8
51361	35050.92
75272	35038.523
76522	34996.426
69809	34930.098
23751	34859.188
51359	34781.81
75562	34719.113
76816	34671.94
69948	34641.883
24142	34638.156
52043	34644.844
74971	34668.74
76458	34697.855
69736	34725.703
23646	34758.883
50904	34783.99
75259	34813.047
76216	34841.75
70043	34869.42
24504	34906.316
51256	34939.152
75861	34976.992
76627	35010.508
70964	35033.61
25041	35052.926
50334	35054.926
74868	35051.723
76592	35040.28
70434	35022.9
24551	35014.39
50325	35007.344
75173	35016.11
76436	35035.51
70710	35060.97
24460	35097.652
49511	35127.28
75254	35154.367
76468	35167.793
70643	35161.68
25168	35144.875
49594	35107.3
75176	35064.066
76851	35015.406
71014	34964.94
24891	34927.58
48632	34894.836
74613	34878.594
76308	34872.164
70396	34870.27
24659	34878.945
49184	34881.84
75097	34886.492
76438	34885.34
71038	34874.906
25483	34865.71
49144	34847.13
75383	34832.105
76468	34817.53
70994	34802.336
25956	34797.188
48820	34790.79
75246	34793.766
76399	34800.734
71089	34808.395
25970	34825.855
48643	34840.92
75128	34863.395
76499	34887.0
71497	34907.473
25825	34932.332
48436	34947.277
75624	34959.836
76464	34962.617
71009	34950.72
25125	34933.22
47589	34898.734
74055	34860.117
75698	34816.113
71001	34768.527
25458	34732.74
47771	34702.434
75035	34692.76
75866	34702.145
71024	34728.562
25798	34780.293
47368	34841.92
75020	34917.68
76682	34994.895
72006	35061.957
26392	35120.207
47463	35150.68
74861	35158.64
76609	35137.355
72124	35084.94
26738	35016.24
47157	34927.527
74877	34839.02
76249	34757.25
71639	34689.035
26343	34652.312
46743	34639.785
75157	34661.22
76308	34707.508
71834	34766.44
26006	34836.83
46011	34894.594
74938	34938.37
76153	34955.863
71283	34939.68
25701	34901.434
45681	34836.16
74930	34764.04
76192	34693.95
71537	34635.55
26616	34609.61
46109	34611.562
75206	34652.652
76486	34724.945
72741	34815.617
27668	34922.08
45531	35018.547
74958	35100.266
76624	35152.207
72566	35163.47
27799	35142.19
45799	35080.85
74886	34997.152
76196	34899.16
72781	34796.156
27828	34711.24
45699	34643.7
74854	34610.117
76319	34609.39
72813	34635.176
27909	34690.8
45087	34754.82
74456	34824.246
75759	34883.117
72686	34916.37
28094	34926.29
44610	34898.61
74793	34843.797
76474	34764.887
72593	34668.277
27786	34576.95
44647	34493.29
74449	34438.418
76079	34417.82
72829	34430.92
28576	34486.035
44354	34565.14
74376	34665.934
75943	34771.363
73294	34863.246
28991	34939.914
44441	34983.363
74908	35000.133
76506	34990.215
72954	34957.195
28518	34921.98
44168	34885.098
74669	34865.043
75995	34864.785
72373	34880.633
28446	34918.164
43502	34957.727
74326	34996.418
75980	35019.15
72958	35011.094
29241	34975.637
43351	34901.156
74881	34800.07
76234	34678.6
72764	34544.4
28396	34421.195
42954	34311.04
74156	34232.68
75482	34190.152
72381	34180.953
27957	34213.207
42778	34270.836
74543	34354.44
76199	34452.715
72607	34552.582
28354	34656.164
42482	34746.41
74583	34826.152
76448	34889.766
73076	34930.703
28607	34958.77
42038	34964.18
74332	34956.71
76556	34937.137
73308	34904.598
28578	34873.355
41868	34836.555
74186	34804.79
75456	34777.375
72289	34748.547
28086	34725.617
41296	34694.16
74763	34657.08
76589	34609.066
73060	34543.562
27271	34472.594
40627	34390.355
74669	34312.27
76146	34246.984
73217	34200.016
29405	34190.504
41246	34214.004
74304	34278.63
76290	34377.676
74133	34496.523
31063	34631.887
41712	34759.137
74148	34872.004
76038	34958.65
74258	35008.273
31681	35031.4
41785	35023.992
74354	35002.51
76046	34976.438
74613	34950.082
33061	34940.203
41815	34939.94
74199	34954.027
75544	34975.293
74664	34989.65
33497	34998.258
41668	34985.6
74074	34955.992
75712	34909.98
74495	34847.805
33171	34787.883
40869	34730.3
73744	34689.816
75622	34670.16
74429	34665.656
32623	34682.14
40388	34703.035
74079	34725.863
76193	34741.78
74230	34740.043
32803	34729.367
40004	34704.586
73815	34679.7
75813	34664.074
74656	34661.184
33306	34687.39
39611	34735.64
73953	34807.945
75736	34894.016
74502	34974.176
33107	35042.83
39433	35077.375
74299	35074.152
75825	35030.113
74729	34943.633
33478	34835.938
38450	34714.88
73588	34604.11
75818	34520.18
74083	34469.17
32815	34465.883
38148	34498.75
73778	34562.55
75751	34641.375
73988	34710.664
32261	34762.51
37706	34774.58
74082	34745.09
76074	34674.816
74516	34565.625
32488	34441.55
37161	34311.305
73794	34197.613
76201	34115.27
74508	34067.973
32516	34068.906
36582	34106.207
73515	34175.88
75669	34265.617
74919	34354.832
33987	34440.176
37817	34502.883
74138	34541.42
76209	34554.14
75148	34536.547
36077	34502.547
38797	34450.55
73982	34392.047
76232	34332.844
76327	34269.94
36411	34214.6
37936	34159.3
74297	34107.977
75988	34060.78
74688	34011.344
34028	33970.562
36379	33933.16
73807	33907.35
75857	33898.42
74960	33903.83
34884	33936.246
37506	33989.035
73759	34066.11
75717	34165.38
75160	34274.76
36183	34397.03
37853	34517.4
73764	34633.85
75577	34741.74
74529	34830.465
35108	34907.824
35893	34967.156
73573	35015.023
75878	35056.645
75043	35089.645
33018	35128.35
34189	35167.97
73618	35213.34
75983	35265.56
74238	35315.32
31921	35368.2
33706	35410.76
73437	35440.91
75955	35455.594
73963	35444.977
31454	35418.293
33235	35368.816
73535	35303.82
75574	35230.98
74051	35150.555
31453	35079.65
32578	35016.31
73264	34967.754
75751	34937.855
74034	34919.082
31215	34918.645
31929	34923.79
73203	34931.953
75896	34940.402
74265	34938.625
31388	34934.99
31713	34922.277
72919	34905.598
75579	34890.836
73613	34875.297
31373	34872.324
31564	34875.887
72938	34887.97
75492	34908.227
74196	34924.844
31967	34941.754
31185	34944.883
72493	34931.168
75138	34899.734
73582	34842.86
31529	34772.68
31201	34686.582
72635	34593.934
75454	34505.26
73678	34421.414
31937	34358.85
31809	34314.29
72699	34291.688
75496	34292.293
74529	34304.85
32634	34333.344
31862	34363.27
73054	34389.594
75808	34409.09
74354	34410.055
33025	34400.406
31715	34373.844
72436	34336.73
75264	34298.703
74126	34261.47
33928	34245.254
32179	34253.68
72856	34298.76
75730	34390.32
74243	34524.082
34344	34707.375
32319	34925.45
72711	35166.938
75289	35416.633
74968	35645.492
35494	35840.91
32638	35976.395
73023	36039.37
75807	36025.64
75721	35928.957
38033	35768.914
33664	35558.293
72884	35324.35
75457	35097.91
75854	34897.56
40036	34753.992
34824	34675.69
73068	34669.77
75913	34734.156
76326	34846.832
44407	34994.91
38211	35149.44
73453	35290.402
75564	35400.867
77043	35458.1
50027	35461.957
43596	35408.234
74574	35307.598
75822	35174.332
76777	35013.527
78012	34838.023
77513	34656.055
76401	34488.297
76040	34340.84
77463	34207.805
78669	34088.465
77802	33977.195
76918	33882.395
76678	33801.55
77542	33723.87
78768	33647.074
78079	33566.586
76804	33493.367
76601	33428.812
77721	33365.914
78824	33305.766
78396	33246.152
77259	33199.113
76916	33166.316
77943	33139.016
79098	33115.23
78019	33088.58
77013	33066.13
77088	33045.113
78096	33013.844
69669	32972.24
55151	32918.98
75414	32860.445
76438	32803.812
77283	32745.86
47793	32698.914
35915	32663.113
73083	32640.217
75975	32632.713
75529	32627.354
37245	32625.754
28460	32614.283
71941	32585.064
75501	32539.072
74768	32468.205
35264	32386.574
25762	32297.543
70940	32210.846
75614	32142.82
75121	32094.113
35307	32079.29
25105	32092.924
71028	32128.455
75731	32182.86
75131	32237.844
34295	32293.787
22374	32339.484
69767	32370.13
75504	32392.393
74514	32401.848
33983	32412.568
21257	32423.37
68504	32432.555
75308	32442.404
74839	32438.906
34094	32425.389
17053	32393.521
59407	32341.383
73403	32277.266
74643	32203.557
33796	32144.764
7670	32115.268
36703	32128.705
69877	32188.303
74068	32283.545
33203	32411.584
1544	32552.225
22365	32684.732
67495	32782.72
74685	32828.043
33184	32832.098
-266	32810.45
14966	32792.816
65111	32804.484
74878	32870.98
33439	33024.688
-279	33270.918
14759	33597.484
65278	33962.566
75211	34312.496
33671	34608.414
-248	34811.434
14631	34908.004
65247	34904.824
74814	34844.418
33758	34817.625
-256	34925.695
14539	35277.113
65398	35954.566
75074	37009.867
34009	38465.266
-196	40280.133
14343	42365.082
64625	44579.883
74338	46762.92
33826	48768.484
-257	50462.36
13932	51752.367
64389	52587.574
68994	52974.363
18758	52987.047
-1084	52721.855
13566	52304.87
63738	51852.02
50485	51469.484
3650	51245.53
-1207	51215.0
13516	51388.332
63323	51727.42
74728	52167.766
36824	52646.34
22382	53080.996
70004	53394.742
76138	53530.555
77056	53429.37
47691	53065.523
34860	52419.57
73329	51491.81
76353	50304.824
77624	48878.633
53894	47262.184
38109	45508.332
73545	43681.156
77125	41856.637
78271	40094.33
51869	38465.195
33928	37021.207
72533	35799.863
76815	34827.414
78051	34093.293
47711	33585.96
29687	33270.15
71476	33102.027
75757	33043.926
77124	33043.734
43089	33075.004
27093	33109.812
71620	33131.28
76020	33141.0
76248	33128.914
41854	33106.023
25891	33072.516
71236	33028.195
76220	32981.52
77001	32922.83
41765	32861.36
25142	32796.477
70881	32728.996
75978	32669.701
76639	32609.082
41129	32549.77
22882	32473.857
70148	32352.086
76553	32155.45
76468	31831.082
40194	31343.518
21192	30653.934
69474	29738.363
76130	28607.361
76139	27281.625
40320	25826.545
20385	24318.041
68966	22840.914
75901	21489.877
75991	20326.74
40535	19404.057
21590	18729.973
69743	18276.488
76003	17999.312
76046	17820.49
40930	17678.768
20294	17516.373
68970	17298.861
75758	17035.941
76143	16749.58
40294	16500.33
18149	16344.358
66972	16322.898
75462	16464.176
76238	16744.133
40029	17120.748
16005	17514.922
63043	17832.283
74918	18001.31
76093	17965.58
40401	17731.406
12834	17347.436
54536	16899.535
73380	16508.084
76237	16277.671
40381	16295.934
7729	16583.555
37302	17080.074
69603	17654.465
75993	18112.893
40106	18253.87
5379	17892.902
32589	16896.92
69284	15241.496
76326	13036.578
40660	10525.7
10314	8048.3975
48573	5984.0405
72097	4719.28
75798	4576.5938
41213	5763.2065
18526	8319.329
67796	12096.416
75976	16807.752
76947	22050.15
43313	27374.842
19567	32341.127
68913	36568.566
77029	39819.5
77524	42003.555
43430	43186.348
18472	43549.246
67899	43332.97
76413	42819.848
76332	42261.81
42623	41850.23
17618	41679.02
66958	41733.492
76312	41945.176
76976	42186.86
42753	42334.832
17096	42281.004
66463	41957.383
75969	41373.92
76945	40579.332
43542	39679.5
17946	38788.973
67137	38008.07
75971	37422.63
76952	37055.926
44192	36903.215
19363	36913.484
68351	37007.523
76450	37117.11
76824	37166.688
44594	37123.727
19666	36978.54
67662	36744.754
76221	36471.043
76979	36192.668
44964	35957.164
18870	35788.996
67562	35686.652
76501	35644.863
76965	35622.605
44956	35590.887
17762	35517.96
66704	35377.84
76064	35177.742
76963	34920.566
44723	34639.938
17569	34369.31
66691	34134.902
76125	33972.582
76548	33886.07
44969	33878.53
17569	33935.434
66611	34026.547
76416	34137.125
77098	34238.54
45040	34311.89
17222	34344.34
66538	34323.777
76500	34264.047
77007	34170.273
45118	34046.848
17315	33897.94
66398	33720.285
76485	33528.766
77311	33327.18
45806	33114.75
17537	32892.53
66332	32656.4
76019	32421.14
76578	32188.379
45909	31949.719
18017	31692.02
66654	31390.19
76163	31033.65
77069	30598.809
46881	30058.365
19336	29393.209
67461	28589.855
76143	27669.625
77106	26659.934
47726	25599.387
20439	24542.52
68041	23548.16
76040	22698.617
76745	22061.828
48281	21689.982
20778	21621.297
67853	21868.014
76141	22439.295
77519	23310.613
48725	24430.52
21027	25733.316
67603	27140.264
75675	28580.207
77726	29976.686
49165	31254.105
20829	32359.953
67710	33253.176
76174	33920.64
77151	34365.203
48982	34602.16
21323	34662.168
67479	34581.066
75907	34415.266
77463	34196.97
49239	33968.965
21171	33759.67
67669	33577.125
76064	33436.938
76955	33327.547
49500	33247.52
21175	33189.027
67698	33133.504
75638	33086.234
77527	33038.445
50350	33000.656
21343	32982.016
67731	32981.23
76216	33016.246
77718	33081.582
50486	33182.254
21038	33313.6
67668	33456.332
75874	33608.69
77290	33747.16
50536	33866.062
21006	33958.277
67386	34012.566
75963	34040.914
77789	34037.688
51584	34015.863
21595	33984.67
67404	33942.84
75701	33905.082
77208	33861.266
51636	33814.836
21714	33763.434
67178	33695.887
75941	33620.82
77293	33527.723
51666	33425.31
21886	33321.2
66908	33216.137
75800	33130.05
77423	33059.0
53449	33011.926
23054	32991.152
67696	32986.28
75999	33002.895
77539	33021.66
55283	33038.637
23779	33049.76
67416	33044.3
75568	33034.395
77424	33011.824
55942	32986.074
24439	32965.508
67694	32948.26
76014	32948.94
77605	32956.06
56166	32970.348
24194	32988.74
67084	32997.36
76072	33002.67
77167	32990.492
55414	32965.516
23651	32934.746
66497	32899.07
75525	32881.207
76879	32880.504
55136	32909.23
23474	32974.336
66907	33068.24
75316	33198.617
76888	33345.4
55123	33499.156
23123	33649.098
66620	33775.684
74646	33884.105
76614	33962.203
55164	34012.53
22839	34042.508
66413	34051.805
75458	34062.156
77110	34076.977
56000	34099.527
23181	34132.43
66588	34165.082
75381	34205.855
77206	34245.277
57011	34274.23
23556	34289.727
66647	34281.996
75674	34266.266
77288	34239.99
57344	34209.46
23334	34183.664
66051	34160.473
75816	34155.605
77191	34158.12
56439	34168.85
22664	34185.66
65992	34194.22
75461	34201.94
77134	34194.02
56285	34173.75
22195	34147.332
65844	34112.516
75617	34090.234
76864	34077.434
55518	34083.91
21172	34116.04
65322	34163.93
75652	34234.914
77126	34308.6
54498	34377.26
19768	34432.637
64595	34456.87
75294	34458.16
76611	34425.926
53870	34369.73
19143	34303.18
64273	34230.516
75252	34178.46
77096	34147.258
54439	34147.707
19451	34183.934
64204	34241.562
75127	34322.76
77223	34402.26
55788	34468.957
19614	34513.973
64156	34520.06
75478	34498.26
77208	34443.113
55782	34369.723
19224	34297.504
63576	34234.098
75121	34207.93
76593	34219.266
55373	34276.418
19331	34381.14
63817	34515.34
75184	34679.164
76753	34846.426
55714	35005.715
19211	35149.473
63804	35261.66
75434	35354.68
76646	35421.863
55727	35473.984
19114	35523.92
63008	35569.797
74709	35629.223
76541	35691.336
56386	35754.613
19050	35815.113
62801	35853.27
75224	35872.84
77446	35855.977
56529	35803.37
19004	35721.95
62589	35609.72
75374	35490.81
76823	35367.363
57313	35254.08
19370	35164.46
62728	35093.63
74980	35054.637
76718	35031.9
57153	35020.234
19386	35014.832
62599	34997.31
75190	34974.863
77143	34934.633
57826	34881.883
19489	34827.227
62360	34769.586
74794	34731.29
76715	34710.223
58662	34715.145
19685	34753.66
62248	34814.51
75379	34905.645
77309	35009.316
58134	35120.1
18861	35234.527
61858	35334.586
75058	35426.97
76906	35497.348
58158	35546.766
18302	35579.848
61784	35586.902
75284	35581.926
76198	35556.902
57034	35517.203
17631	35470.19
61242	35408.133
75388	35346.887
76803	35279.703
57378	35212.965
17594	35154.688
61125	35096.06
75009	35050.11
76623	35005.68
58141	34963.117
17581	34923.85
60761	34872.66
75568	34817.383
76305	34744.395
58242	34653.918
17371	34551.14
60591	34426.57
75516	34296.0
77064	34154.43
57745	34011.42
16707	33879.168
59983	33753.54
75284	33653.566
76727	33574.973
58406	33524.91
17118	33511.766
60390	33525.008
76059	33575.445
77247	33649.066
58729	33742.14
17426	33851.562
60642	33955.69
76116	34056.31
77288	34133.316
59076	34181.402
17683	34201.375
60670	34181.035
75470	34136.797
76949	34066.668
59186	33984.117
18108	33907.234
60607	33836.41
75389	33793.684
76994	33774.7
60144	33782.414
18756	33818.484
60868	33863.21
75575	33918.195
76929	33962.508
60452	33988.688
19220	33996.668
60901	33973.21
75230	33934.36
76711	33878.09
60397	33817.047
19262	33768.734
60608	33730.836
75673	33723.0
77337	33738.438
61126	33777.703
19423	33841.363
60463	33908.527
75227	33982.188
77466	34044.035
61569	34089.676
19628	34122.4
60333	34130.09
74730	34129.043
76274	34115.746
60961	34098.586
19313	34090.27
60478	34083.066
75310	34091.957
77067	34107.824
60720	34131.023
18727	34164.926
59721	34194.01
75367	34227.918
77334	34255.64
61208	34279.094
18924	34305.457
59774	34323.63
75018	34347.156
76855	34366.867
61177	34383.824
18894	34402.06
59559	34405.613
75145	34403.016
76798	34381.332
61326	34339.934
18663	34284.977
59252	34205.426
75096	34117.746
76972	34018.047
62003	33914.664
19048	33821.043
59381	33730.152
75526	33658.92
76920	33600.707
62096	33557.664
19421	33535.586
59143	33519.492
74798	33519.46
76191	33523.926
63031	33531.86
20300	33548.836
59338	33561.562
74839	33582.137
77208	33600.434
62942	33616.676
20102	33635.71
59108	33642.484
74973	33646.77
76233	33636.703
63088	33611.566
19701	33578.332
57952	33526.824
75063	33473.938
76712	33417.05
62752	33365.305
19052	33334.2
58189	33319.17
75156	33338.637
76746	33385.684
62331	33459.95
18373	33563.074
58189	33673.79
75318	33793.688
76148	33901.61
61168	33987.832
17241	34050.98
57090	34074.625
75078	34072.113
76059	34040.062
61039	33989.355
17209	33939.176
56606	33889.742
75346	33865.344
76671	33865.332
61809	33894.53
17229	33958.832
56276	34039.348
75505	34138.98
76833	34237.1
62333	34323.16
17939	34394.992
57735	34434.15
75612	34452.57
76528	34445.086
62435	34420.125
17486	34395.234
56306	34368.066
75316	34360.39
76505	34369.527
62773	34398.023
17950	34451.312
56071	34510.688
75188	34580.19
76821	34641.574
62956	34686.74
18406	34716.543
56459	34714.64
74773	34693.91
76305	34649.08
62643	34586.535
18217	34520.84
56523	34446.83
74726	34384.223
76452	34329.56
63388	34286.297
18386	34263.555
56237	34247.836
75610	34250.14
76563	34259.387
63377	34272.89
18416	34294.902
55915	34309.066
75163	34324.71
76448	34330.535
63493	34324.45
18504	34312.86
56011	34282.824
75231	34248.953
76581	34206.55
63859	34161.08
18546	34126.742
55801	34096.375
74949	34088.24
76391	34097.355
64324	34124.066
18840	34173.48
55446	34226.914
74796	34289.695
76495	34345.312
64279	34386.664
19303	34417.277
55811	34423.344
75388	34421.164
77354	34409.094
65019	34395.95
19528	34399.08
55656	34412.934
74716	34454.285
76517	34513.664
64514	34584.85
19217	34665.957
55534	34731.94
75240	34783.793
76606	34803.836
64414	34786.906
19456	34741.766
55566	34661.63
75056	34570.703
76367	34474.08
65205	34384.17
20146	34319.875
55771	34273.855
75749	34259.395
77120	34263.06
65573	34274.324
20426	34289.2
55694	34282.71
75333	34258.23
76868	34201.85
65509	34111.93
19939	34000.586
54899	33862.617
74917	33721.19
76225	33579.066
65671	33444.902
19720	33335.027
54624	33241.777
74972	33181.133
76466	33146.28
66018	33135.945
19703	33157.914
54328	33197.625
75336	33265.867
77068	33351.484
65701	33449.066
19653	33560.477
54059	33664.473
74733	33764.586
76452	33843.812
65949	33893.79
19809	33918.69
54218	33904.99
75023	33869.793
76456	33813.883
65969	33747.637
19416	33692.008
53503	33644.457
75149	33624.77
76464	33627.97
65530	33650.6
19289	33694.207
53294	33735.418
75426	33775.883
76583	33799.562
65627	33800.695
19031	33788.06
52728	33753.387
75253	33717.742
76261	33684.668
65071	33663.312
18716	33669.332
52349	33691.734
74997	33740.13
76104	33800.098
65431	33860.62
18742	33919.734
52021	33955.008
75436	33973.137
76230	33966.79
65964	33939.453
18974	33908.285
52119	33870.023
75303	33846.195
76623	33836.316
66453	33841.52
19431	33868.355
52479	33897.332
75263	33932.133
76288	33957.203
66138	33964.97
19529	33961.86
51890	33936.89
75434	33908.887
76531	33880.773
66525	33862.105
20155	33871.207
52150	33900.656
75616	33963.37
76216	34047.984
66616	34143.805
20159	34247.348
51499	34332.434
75152	34399.504
76176	34433.945
66319	34431.11
19947	34402.164
51031	34340.51
74813	34267.85
76394	34188.656
67761	34112.26
20766	34057.445
51347	34017.402
75006	34007.68
76791	34022.69
68248	34059.83
21268	34125.484
51033	34202.97
74753	34299.473
75661	34403.35
67966	34506.7
21368	34612.23
50735	34699.277
75328	34771.785
76593	34816.684
68022	34826.793
21428	34808.773
50760	34750.734
74947	34669.37
76708	34566.863
68323	34452.43
21463	34347.793
50497	34251.79
75047	34185.37
76153	34147.375
68321	34136.223
21843	34157.383
51410	34190.33
75053	34237.305
76391	34281.67
68357	34312.445
21471	34333.21
49432	34329.41
74568	34313.883
76339	34284.824
68370	34245.76
21656	34212.33
49682	34177.26
74961	34155.344
76120	34141.37
68300	34131.188
21700	34130.984
49443	34124.367
75034	34119.35
76416	34107.3
69117	34084.867
22184	34062.477
49063	34029.664
74731	34000.47
76139	33971.42
68615	33941.383
21789	33920.125
48819	33893.965
74363	33872.043
75931	33845.617
69564	33808.79
21684	33769.297
48393	33713.82
75316	33654.293
77061	33587.934
69173	33516.9
21636	33456.652
48553	33400.996
75167	33367.055
76571	33354.008
69205	33362.45
22329	33402.477
47924	33459.395
74216	33539.156
76150	33628.7
69296	33716.023
22674	33801.426
48206	33864.117
75039	33908.88
76580	33927.527
69361	33918.66
23169	33897.17
48532	33859.484
75525	33827.09
76658	33805.332
69945	33799.926
23331	33825.332
48428	33868.902
74978	33935.914
76099	34010.676
69668	34076.75
23161	34130.035
47349	34146.63
74446	34130.3
76127	34075.457
69619	33985.7
23005	33883.668
46891	33774.402
74553	33686.82
76119	33632.438
69668	33619.703
22651	33662.49
46856	33744.59
74744	33865.16
76387	34002.23
69926	34133.656
22374	34251.09
45764	34328.41
74539	34368.504
76142	34366.785
69548	34327.566
22251	34273.516
45641	34207.75
74568	34154.99
75824	34121.805
69361	34110.977
22200	34132.52
45073	34168.707
74510	34220.074
76006	34271.47
69721	34310.062
22210	34339.6
44653	34346.074
74656	34341.633
76082	34327.805
70042	34309.145
22308	34303.086
44082	34302.53
74290	34318.293
75463	34343.1
69159	34366.88
22464	34390.703
44150	34393.46
74381	34377.707
75940	34335.91
70403	34266.035
23369	34184.62
44653	34089.863
74082	34004.27
75581	33935.984
70199	33891.44
23518	33886.38
45081	33909.55
74470	33965.863
75429	34041.805
69953	34121.117
23358	34200.242
43729	34255.18
73528	34286.527
76301	34285.363
70171	34248.945
23274	34192.844
43452	34114.516
73984	34035.125
75681	33962.746
70630	33904.133
23655	33877.184
43646	33874.258
73932	33904.46
76201	33959.44
70737	34027.58
24431	34109.082
43946	34182.05
74110	34246.14
75893	34289.69
71031	34303.445
24916	34296.016
43801	34258.242
73615	34205.12
75984	34140.76
71478	34070.65
25221	34015.12
44009	33972.24
74543	33958.977
76194	33976.562
70929	34021.863
25493	34102.51
44174	34201.12
74588	34318.457
76245	34440.207
71668	34550.58
30369	34647.645
53478	34710.523
73886	34745.61
75386	34746.035
71475	34708.56
26123	34647.94
43113	34560.395
73795	34463.703
75743	34363.6
71044	34263.957
25523	34181.56
43179	34109.8
74073	34059.727
76033	34027.89
71613	34007.59
26503	34005.465
43581	34006.42
74004	34015.145
75954	34024.527
71397	34026.508
26286	34028.11
42559	34016.19
73847	33997.65
76041	33968.355
71828	33923.363
26193	33873.38
42553	33809.0
73966	33741.902
75708	33673.367
72058	33603.39
26738	33546.91
42879	33497.25
74791	33465.97
76344	33451.953
71983	33449.46
26892	33465.55
42184	33484.066
74110	33507.125
75858	33526.06
72517	33530.227
26961	33526.008
41776	33500.965
74146	33464.008
76004	33415.98
72264	33357.016
26729	33303.37
41727	33250.76
74619	33213.457
76261	33194.727
72011	33193.49
26553	33222.074
40843	33269.586
73376	33341.63
75785	33430.96
71948	33525.77
26584	33627.305
41013	33714.54
74109	33784.94
75502	33827.707
71767	33831.156
26866	33802.855
40933	33734.715
74134	33642.004
75866	33535.23
71613	33424.133
27031	33334.152
40575	33267.992
73918	33241.633
75956	33255.457
72001	33299.285
