EEG_CH1_RAW	EEG_CH1_BP_0p5_20
-111021	26.946018
-108841	67.425064
-122507	122.19597
-155097	192.14198
-176778	271.4762
-197810	354.42047
-261523	445.80646
-237928	525.929
-165441	575.08875
-122821	590.1038
-110562	577.9497
-106447	550.99097
-112008	528.04675
-115769	527.8179
-110196	563.8147
-99524	642.0145
-89604	759.1762
-79909	901.7866
-19186	1035.9926
-35140	1149.1592
-44151	1222.1117
-174859	1275.4971
-174794	1297.2368
-119917	1287.9653
-117050	1275.7249
-113614	1287.523
-108525	1348.6321
-106875	1476.6324
-112640	1675.9093
-117612	1932.4958
-114260	2214.7358
-108847	2481.779
-106404	2693.8303
-111583	2823.7021
-116297	2863.5518
-112820	2828.5452
-107834	2757.75
-106981	2706.8257
-112080	2734.9187
-116639	2887.7727
-112922	3183.0605
-107782	3604.9453
-106344	4105.0195
-112183	4612.122
-119569	5047.372
-113925	5341.564
-107854	5458.7036
-106471	5408.333
-111149	5247.379
-115868	5068.449
-111954	4977.639
-107296	5070.5757
-113137	5408.042
-145289	5999.722
-171382	6788.495
-171441	7658.3467
-173799	8467.417
-201552	9084.682
-166441	9402.033
-120816	9385.277
-112552	9093.79
-106944	8660.715
-106077	8270.149
-114852	8115.1445
-118597	8344.822
-112376	9022.214
-107590	10102.915
-110931	11436.795
-136021	12799.787
-125946	13930.429
-111517	14607.051
-106100	14708.004
-107049	14251.069
-113386	13403.279
-114364	12450.703
-111546	11738.181
-108150	11586.467
-105742	12206.205
-113106	13632.72
-121929	15693.838
-143246	18033.877
-120316	20169.137
-110066	21617.047
-116259	22016.09
-124553	21233.744
-121587	19433.057
-112122	17077.29
-108087	14858.689
-122616	13557.726
-124541	13845.749
-109323	16090.006
-105252	20198.398
-106449	25527.943
-113155	30902.83
-116059	34743.617
-110747	35300.02
-105160	30952.914
-100539	20528.688
-104677	3572.3955
-114120	-19480.95
-110111	-47275.72
-104756	-77649.58
-110422	-107892.32
-143585	-135106.47
-160623	-156627.67
-175824	-170400.81
-180988	-175279.36
-196419	-171176.78
-161187	-159077.72
-119766	-140855.28
-109612	-118973.45
-103169	-96130.12
-102373	-74874.77
-109104	-57280.977
-114441	-44721.438
-109058	-37769.438
-103345	-36226.227
-104912	-39261.023
-109512	-45626.727
-114405	-53901.027
-108781	-62712.758
-102547	-70910.945
-102070	-77666.48
-109897	-82502.05
-116028	-85265.44
-109696	-86063.77
-103022	-85178.92
-102896	-82992.9
-111835	-79932.4
-121039	-76436.34
-113042	-72938.31
-104784	-69844.16
-104451	-67508.04
-113387	-66198.16
-120609	-66055.68
-113692	-67055.19
-105848	-68974.73
-105291	-71402.01
-113826	-73782.79
-120429	-75513.67
-113233	-76063.664
-107372	-75096.85
-106824	-72578.95
-113683	-68833.65
-120401	-64531.043
-112543	-60599.375
-104253	-58062.555
-104331	-57841.125
-113509	-60553.344
-120507	-66359.625
-112191	-74884.34
-104234	-85231.914
-110734	-96109.2
-138136	-106033.95
-183206	-113590.875
-189938	-117695.805
-180816	-117781.27
-198226	-113890.62
-164863	-106686.734
-124426	-97305.586
-110612	-87137.586
-101291	-77578.69
-101442	-69779.86
-111194	-64460.285
-118352	-61819.4
-110416	-61557.383
-103969	-62987.97
-101378	-65226.656
-110622	-67400.055
-117856	-68837.29
-108784	-69195.984
-99699	-68494.016
-100137	-67057.34
-110496	-65399.44
-118090	-64067.703
-109096	-63494.945
-99921	-63885.875
-101032	-65175.414
-114357	-67062.09
-119768	-69105.49
-109764	-70852.53
-100636	-71954.664
-100999	-72253.32
-111504	-71807.48
-118959	-70858.95
-110075	-69744.06
-101044	-68772.74
-101842	-68121.16
-112157	-67767.34
-119654	-67492.33
-112972	-66946.99
-103129	-65766.48
-103134	-63709.223
-113109	-60781.44
-120076	-57311.008
-111513	-53939.703
-103237	-51521.492
-103689	-50954.55
-113272	-52975.645
-119776	-57966.496
-111597	-65814.6
-103545	-75875.04
-110361	-86982.945
-166279	-97685.8
-191543	-106480.08
-186995	-112069.62
-180970	-113608.11
-195205	-110859.48
-155779	-104238.1
-123572	-94740.91
-115664	-83759.57
-104742	-72813.21
-105830	-63270.273
-114320	-56128.85
-116269	-51877.152
-109428	-50462.023
-98271	-51367.277
-96897	-53771.375
-103628	-56752.445
-107359	-59485.445
-93636	-61422.418
-74151	-62323.723
-108881	-62270.27
-131571	-61544.695
-136286	-60567.324
-125970	-59751.562
-111820	-59362.406
-114892	-59471.527
-118425	-59974.3
-113510	-60652.566
-115924	-61262.348
-113461	-61632.31
-112941	-61725.62
-119370	-61650.39
-123583	-61620.707
-113719	-61873.676
-102599	-62568.52
-102564	-63705.207
-113002	-65087.723
-124054	-66349.06
-122613	-67039.414
-119274	-66752.125
-122445	-65266.973
-135770	-62662.29
-146149	-59369.227
-138093	-56140.027
-125388	-53923.59
-118221	-53682.46
-117424	-56174.723
-114280	-61757.203
-102942	-70253.086
-96006	-80917.414
-102596	-92522.79
-135230	-103544.195
-156311	-112427.805
-160282	-117858.57
-160664	-119003.57
-168394	-115671.45
-124097	-108357.97
-107959	-98113.266
-97270	-86384.08
-95875	-74740.03
-103821	-64585.49
-131942	-56938.848
-123844	-52307.188
-108461	-50641.215
-95832	-51417.2
-94354	-53799.58
-105099	-56843.13
-111786	-59697.195
-101220	-61751.258
-94016	-62724.125
-97181	-62653.633
-110401	-61816.89
-124370	-60613.477
-120589	-59439.426
-116951	-58579.78
-113829	-58155.69
-120739	-58123.324
-128117	-58329.32
-117225	-58591.117
-102005	-58774.83
-84402	-58841.492
-82480	-58872.887
-105269	-59022.734
-113478	-59455.38
-110791	-60262.96
-113942	-61401.062
-121835	-62666.883
-121183	-63730.19
-110963	-64206.895
-110216	-63777.547
-120617	-62313.082
-137929	-59960.113
-144836	-57180.03
-127881	-54706.375
-112924	-53420.684
-110008	-54179.8
-124282	-57618.1
-133634	-63981.36
-120446	-73017.72
-109755	-83953.48
-119555	-95584.78
-151731	-106456.06
-172387	-115105.65
-173592	-120307.125
-170887	-121290.31
-181421	-117868.83
-141454	-110488.3
-110418	-100110.4
-97169	-88061.15
-90378	-75798.07
-94696	-64659.188
-101104	-55675.37
-103437	-49447.78
-95322	-46115.31
-87519	-45407.848
-88272	-46769.938
-96409	-49513.4
-100848	-52965.918
-92728	-56584.574
-85840	-60006.668
-86998	-63049.387
-98493	-65658.44
-134281	-67830.59
-102322	-69568.43
-86580	-70810.15
-85591	-71442.15
-91081	-71336.445
-97263	-70413.945
-90946	-68713.03
-84799	-66431.72
-87706	-63936.58
-94766	-61717.03
-98740	-60294.547
-97071	-60107.074
-117566	-61391.258
-81879	-64128.754
-87063	-67987.75
-95277	-72383.664
-89210	-76583.42
-84726	-79848.82
-89372	-81599.52
-100294	-81543.984
-105116	-79757.08
-94225	-76679.81
-85633	-73033.99
-84917	-69683.48
-93884	-67453.46
-101522	-66957.7
-90837	-68467.71
-81959	-71846.33
-82948	-76572.88
-115104	-81835.805
-140039	-86697.07
-137923	-90270.12
-141370	-91869.56
-153475	-91145.9
-119010	-88145.734
-104619	-83243.47
-93149	-77085.375
-86757	-70448.945
-84408	-64093.742
-98284	-58645.113
-106429	-54522.89
-95264	-51916.09
-86574	-50800.65
-88594	-51000.453
-99999	-52254.13
-109120	-54280.582
-99276	-56818.816
-90407	-59636.0
-93201	-62519.812
-104947	-65254.21
-108631	-67602.23
-96448	-69305.43
-85009	-70107.32
-84765	-69809.27
-98966	-68330.62
-107766	-65770.06
-96897	-62435.793
-88217	-58830.227
-91326	-55591.305
-102201	-53383.914
-113266	-52768.13
-118550	-54069.734
-95525	-57292.715
-93426	-62076.062
-103915	-67739.39
-111120	-73399.25
-100511	-78140.19
-91334	-81202.53
-91694	-82157.984
-105561	-81020.35
-113295	-78271.35
-102236	-74785.51
-99553	-71659.375
-132080	-69988.94
-122074	-70651.19
-117778	-74080.09
-106004	-80152.48
-96059	-88171.664
-105374	-96970.086
-141016	-105106.03
-161725	-111134.99
-161936	-113859.08
-159989	-112566.625
-174267	-107166.84
-134515	-98223.766
-112231	-86818.2
-101959	-74384.69
-89259	-62447.195
-87307	-52348.293
-103347	-45042.664
-110569	-40969.312
-98268	-40024.254
-88837	-41632.188
-92054	-44902.08
-102256	-48827.29
-108735	-52481.41
-96615	-55178.156
-87671	-56555.277
-93261	-56589.742
-101403	-55545.45
-107087	-53842.305
-94954	-51948.285
-84379	-50260.555
-86665	-49028.742
-99528	-48330.656
-106764	-48093.547
-94789	-48159.58
-84798	-48357.086
-88658	-48558.715
-100585	-48723.266
-110106	-48894.6
-95594	-49168.227
-84238	-49626.56
-87894	-50285.914
-100911	-51059.785
-108003	-51757.387
-94966	-52123.977
-83602	-51907.125
-85037	-50948.332
-102024	-49259.973
-110052	-47075.9
-96837	-44844.668
-88094	-43161.223
-90908	-42661.66
-102771	-43882.55
-109843	-47124.883
-96108	-52354.414
-85974	-59155.414
-96337	-66768.31
-125416	-74200.38
-148957	-80397.79
-143252	-84432.74
-142478	-85677.41
-158318	-83930.71
-132691	-79475.83
-118362	-73006.086
-98688	-65530.85
-86117	-58164.91
-90817	-51932.297
-104206	-47589.39
-111697	-45508.38
-97509	-45630.484
-84877	-47520.055
-87019	-50474.094
-105116	-53682.684
-112892	-56403.453
-98477	-58102.688
-89177	-58537.02
-92067	-57776.527
-104832	-56149.832
-111916	-54143.977
-97313	-52280.05
-85517	-50986.965
-90414	-50520.82
-104670	-50927.695
-111472	-52065.01
-96794	-53660.742
-85028	-55390.9
-90273	-56968.01
-107159	-58201.93
-111643	-59032.84
-96241	-59515.223
-84482	-59762.37
-90609	-59898.707
-104070	-60013.062
-110561	-60128.426
-95868	-60206.324
-82852	-60178.668
-86459	-60003.74
-105181	-59721.23
-112899	-59497.062
-100581	-59625.53
-87179	-60486.72
-92351	-62468.85
-105664	-65863.23
-112067	-70761.9
-97364	-76980.766
-86286	-84030.945
-97679	-91163.25
-125381	-97468.81
-145624	-102028.38
-141047	-104077.74
-135321	-103157.56
-173529	-99209.72
-146772	-92634.04
-115519	-84197.92
-96922	-74933.24
-83503	-65951.15
-87042	-58246.61
-105002	-52540.203
-111891	-49176.37
-96292	-48095.05
-84584	-48874.44
-91861	-50846.957
-105593	-53253.91
-114914	-55401.145
-99913	-56789.246
-83633	-57181.02
-89467	-56609.45
-106437	-55327.496
-112704	-53716.3
-96965	-52176.29
-84712	-51008.168
-91905	-50378.87
-107096	-50287.586
-114006	-50597.613
-97728	-51102.754
-85117	-51594.715
-93820	-51930.785
-108694	-52073.113
-114341	-52086.613
-98752	-52103.355
-86868	-52257.14
-94701	-52623.395
-108724	-53164.2
-114982	-53750.816
-99607	-54169.152
-87459	-54187.19
-94847	-53643.98
-110251	-52530.645
-119312	-51039.996
-102036	-49570.547
-87696	-48663.8
-92501	-48902.805
-110572	-50777.92
-117121	-54558.65
-101388	-60193.203
-90517	-67261.85
-105499	-75015.22
-142935	-82479.83
-160525	-88630.375
-154026	-92562.805
-159899	-93662.78
-194171	-91733.25
-159739	-87053.445
-116996	-80302.78
-101764	-72455.37
-93739	-64593.523
-98877	-57716.305
-107126	-52572.8
-109906	-49552.945
-100586	-48647.6
-93489	-49492.855
-99781	-51483.523
-109421	-53920.004
-108999	-56159.215
-99704	-57734.49
-93173	-58422.3
-98996	-58252.363
-106354	-57454.004
-108042	-56362.41
-99602	-55313.293
-92819	-54553.746
-98470	-54190.8
-105560	-54185.81
-107247	-54390.152
-102141	-54609.1
-95778	-54677.168
-98755	-54519.863
-104566	-54176.773
-104631	-53784.88
-97511	-53528.406
-91825	-53567.863
-97241	-53970.277
-103855	-54680.453
-104854	-55506.414
-97603	-56163.734
-91731	-56355.406
-98086	-55873.496
-106549	-54687.426
-104982	-52997.562
-96600	-51229.05
-91229	-49970.277
-96852	-49862.03
-102592	-51452.48
-103036	-55039.562
-96846	-60589.03
-93887	-67676.91
-102746	-75529.7
-123585	-83139.52
-133996	-89437.14
-162304	-93471.42
-171731	-94608.13
-190820	-92644.43
-148384	-87868.04
-105722	-80973.125
-94948	-72953.08
-89612	-64909.566
-94712	-57850.94
-99703	-52530.484
-99757	-49334.19
-93320	-48245.688
-89217	-48898.715
-96839	-50695.125
-99613	-52954.06
-99286	-55056.6
-92396	-56563.59
-86919	-57275.12
-92017	-57232.1
-97543	-56657.168
-98060	-55857.41
-91018	-55126.91
-85536	-54663.227
-90948	-54530.414
-97490	-54665.1
-100166	-54920.047
-90839	-55134.926
-84562	-55203.18
-89519	-55122.8
-92264	-55003.09
-90454	-55025.875
-69453	-55382.277
-46052	-56188.438
-74618	-57416.38
-87935	-58881.934
-90536	-60255.49
-91199	-61134.69
-116503	-61151.74
-96081	-60119.355
-91710	-58101.766
-91992	-55467.574
-85332	-52861.797
-76309	-51106.92
-54399	-51051.645
-46897	-53369.414
-63267	-58382.906
-60957	-65955.83
-54972	-75453.84
-75412	-85813.51
-121129	-95702.13
-146432	-103750.08
-147919	-108790.164
-144405	-110071.59
-165959	-107403.25
-117211	-101208.04
-76804	-92406.664
-64915	-82267.5
-63857	-72164.875
-72147	-63338.98
-74809	-56693.71
-71821	-52666.523
-70424	-51201.758
-67734	-51825.555
-64626	-53799.406
-59421	-56301.418
-54323	-58602.195
-58196	-60195.12
-59543	-60869.336
-58696	-60700.793
-33989	-59972.9
-22512	-59046.41
-22072	-58242.6
-16987	-57756.914
-10064	-57622.727
-7076	-57722.938
-4134	-57852.62
8443	-57810.453
75048	-57494.848
129222	-56939.523
177709	-56318.49
251610	-55897.88
309322	-55933.723
324399	-56576.24
317172	-57803.348
300356	-59387.22
288201	-60925.04
275754	-61931.04
267735	-61973.83
267919	-60822.945
247563	-58546.35
170969	-55545.707
72379	-52527.305
25974	-50399.67
24811	-50084.566
20136	-52295.17
14069	-57351.703
10448	-65066.586
14981	-74731.17
12522	-85211.055
9978	-95132.55
784	-103120.97
-9990	-108053.61
-9720	-109270.98
-7276	-106693.89
-4897	-100823.98
-3312	-92609.24
-1802	-83280.98
-2784	-74103.36
-7041	-66143.67
-15241	-60111.367
4298	-56288.35
184781	-54580.668
78772	-54506.45
-13726	-55477.652
-7797	-56945.367
-5291	-58489.78
-15838	-59893.26
3394	-61138.875
36665	-62333.09
-15483	-63571.0
-30353	-64867.445
-7820	-66083.48
-12056	-66918.85
-15147	-67002.484
7004	-66010.33
16853	-63784.777
28591	-60449.797
44876	-56453.95
79411	-52532.24
115628	-49560.027
216700	-48366.65
363502	-49510.42
419320	-53071.78
440457	-58597.395
444668	-65127.566
449649	-71356.945
454576	-75899.234
452293	-77600.07
447077	-75834.21
446208	-70699.84
445290	-63062.55
446895	-54440.734
446848	-46733.32
443961	-41852.348
442718	-41317.543
441388	-45910.84
441634	-55473.547
442536	-68895.7
442307	-84301.81
445834	-99391.84
446354	-111870.01
441388	-119879.2
440656	-122359.32
453110	-119234.32
460232	-111378.51
472073	-100392.086
483253	-88269.695
497251	-76970.984
506351	-68020.73
510248	-62246.125
514657	-59679.996
525452	-59653.703
527410	-61039.64
524923	-62589.652
525815	-63266.21
529204	-62483.49
532340	-60203.38
531372	-56859.098
523751	-53122.58
517383	-49580.402
516531	-46402.8
513229	-43106.246
505431	-38484.664
499914	-30747.537
497606	-17846.105
497328	2067.2102
500302	30134.123
506143	66361.086
514564	109368.664
521051	156392.27
517396	203557.3
506716	246382.0
494882	280430.1
507463	301989.3
529726	308665.5
564102	299762.25
584344	276385.1
561932	241247.1
577394	198194.02
603696	151605.52
604684	105740.555
622244	64134.24
636395	29190.541
644359	2002.2722
643312	-17580.25
639507	-30675.104
641599	-38969.492
643370	-44280.016
639716	-48171.52
632931	-51700.062
630699	-55317.14
631233	-58926.73
629744	-62071.316
626938	-64158.17
614668	-64698.78
602889	-63465.01
593229	-60586.61
581660	-56515.7
562031	-51916.977
547127	-47542.43
539369	-44096.26
536871	-42141.3
532740	-42058.188
526248	-44057.8
520089	-48221.152
504023	-54532.25
487576	-62896.016
477986	-73100.16
473079	-84731.555
469839	-97067.61
468558	-108979.375
466993	-118897.875
466319	-124875.484
465291	-124761.06
464604	-116477.43
465899	-98364.4
468419	-69531.82
468796	-30142.94
471193	18431.809
476719	73652.67
479584	132048.3
482528	189617.77
483187	242351.5
484668	286770.72
486224	320400.06
489263	342107.06
493244	352190.94
484728	352259.22
455641	344898.47
436969	333208.22
444077	320254.56
454442	308618.38
463220	300047.3
470684	295293.66
477755	294158.2
484354	295705.06
494539	298602.88
514473	301507.6
535797	303388.44
551176	303755.16
557082	302744.5
555738	301046.03
554241	299690.38
560354	299770.72
557123	302169.7
547211	307352.47
541141	315212.03
556311	325089.7
574249	335910.2
591026	346384.88
624219	355254.62
654518	361523.94
657789	364628.44
620715	364512.88
566411	361593.03
372371	356668.75
24926	350735.22
-35496	344676.88
-33737	339202.38
-41597	334723.47
-40017	331320.1
-35530	328783.0
-34031	326733.94
-37739	324765.62
-47891	322571.16
-54695	320043.8
-56098	317324.47
-59994	314788.8
-67466	312979.16
-82181	312485.12
-84876	313836.9
-87095	317412.2
-89717	323355.5
-90956	331562.78
-102835	341715.62
-101178	353327.94
-95809	365827.7
-96329	378631.53
-101526	391210.03
-106856	403122.97
-105418	414026.3
-94098	423661.47
-86392	431845.6
-88722	438447.53
-92464	443353.28
-91418	446466.22
-84016	447738.97
-76199	447199.25
-83142	444971.94
-105605	441279.06
-123032	436418.06
-133257	430715.8
-143172	424473.22
-155677	417902.84
-116363	411067.34
-100387	403892.16
-97070	396185.34
-86329	387698.94
-83418	378230.22
-88534	367712.62
-91181	356289.88
-89458	344346.0
-87362	332483.6
-91185	321353.62
-96945	311658.56
-96263	303936.47
-93165	298409.0
-93727	294940.84
-99477	293066.75
-98730	292084.16
-96877	291223.28
-93174	289886.72
-90393	287804.0
-97790	285137.47
-104274	282496.78
-101724	280810.66
-93318	281089.84
-86814	284151.22
-84321	290336.7
-81300	299318.1
-85618	310046.0
-83427	320884.1
-75899	329890.44
-81571	335223.66
-89382	335619.06
-93686	330742.0
-90004	321379.8
-88142	309401.94
-93290	297472.16
-98835	288550.88
-105644	285287.97
-116282	289429.72
-144592	301385.56
-259017	320071.0
-435094	343049.28
-435571	366944.8
-346906	388186.25
-245839	403803.84
-194636	412139.78
-186386	413289.6
-200183	409173.62
-225559	403185.5
-229727	399465.2
-238291	401946.38
-233576	413341.38
-179501	434297.88
-144329	462963.84
-123022	495010.5
-122183	524193.97
-132561	543354.94
-144737	545686.1
-143619	526025.5
-127584	481922.75
-115772	414264.62
-106222	327319.6
-113069	228184.25
-148595	125715.48
-124910	29132.812
-113872	-53389.734
-117096	-115958.98
-114694	-155766.73
-107599	-173330.55
-101142	-172153.88
-102503	-157890.22
-104069	-137201.62
-100956	-116535.56
-94757	-101053.4
-91006	-93899.0
-95200	-95917.59
-101818	-105838.54
-100727	-120839.66
-96530	-137336.6
-93476	-151821.1
-96603	-161574.84
-99596	-165126.72
-100754	-162398.39
-93481	-154531.86
-91345	-143486.38
-95438	-131521.7
-100057	-120683.51
-99222	-112448.1
-95104	-107528.49
-89837	-105872.57
-92806	-106850.88
-97387	-109527.02
-96177	-112941.4
-90659	-116328.266
-87325	-119223.86
-94502	-121456.43
-112124	-123041.016
-123963	-124033.72
-128186	-124398.1
-124922	-123938.81
-148344	-122314.43
-107206	-119165.79
-68822	-114243.91
-63687	-107557.14
-64799	-99478.01
-54876	-90746.91
-50395	-82359.68
-52789	-75373.055
-35772	-70675.41
-31867	-68757.08
-37699	-69572.21
-42728	-72517.72
-57607	-76543.03
-45547	-80389.44
-48834	-82862.17
-61347	-83119.984
-71409	-80881.516
-75024	-76494.44
-75728	-70847.25
-75792	-65144.062
-80229	-60589.574
-85364	-58066.53
-83664	-57883.484
-85234	-59657.207
-105395	-62372.6
-92009	-64630.555
-87722	-64988.574
-83156	-62371.17
-78730	-56422.742
-76499	-47720.566
-79301	-37793.086
-83487	-28921.064
-82037	-23753.594
-78432	-24804.232
-76266	-33933.137
-78241	-51921.23
-81766	-78223.65
-82879	-110957.19
-79207	-147142.48
-77497	-183147.86
-80104	-215244.72
-84216	-240185.94
-79340	-255695.7
-71492	-260778.64
-65479	-255803.39
-67526	-242352.34
-81005	-222883.22
-87219	-200271.0
-88485	-177317.75
-106656	-156323.52
-117471	-138806.64
-81234	-125401.16
-57980	-115906.4
-54482	-109496.18
-53589	-105018.63
-52425	-101306.1
-54967	-97442.43
-58755	-92923.98
-58052	-87702.25
-53650	-82119.0
-55772	-76747.516
-57432	-72197.88
-54446	-68929.12
-60534	-67136.5
-57193	-66682.62
-56328	-67077.98
-68016	-67714.35
-65387	-67966.95
-45552	-67319.4
-42832	-65479.363
-42061	-62448.695
-34047	-58521.547
-29116	-54215.973
-30701	-50161.85
-24079	-46974.344
-19658	-45125.367
-17432	-44848.69
-14099	-46096.09
-9437	-48544.918
-6904	-51665.332
-7343	-54817.387
-6836	-57369.56
-7446	-58814.086
-7337	-58853.8
-9425	-57461.793
-13007	-54888.633
-13679	-51623.484
-17954	-48314.555
-22064	-45666.902
-25052	-44326.895
-34898	-44771.383
-41447	-47219.383
-48208	-51574.39
-51865	-57419.1
-57644	-64054.87
-67601	-70586.99
-85216	-76043.11
-95442	-79509.97
-126962	-80257.58
-140386	-77868.6
-148821	-72302.27
-106657	-63921.516
-79416	-53422.906
-75820	-41766.78
-75277	-30031.635
-76851	-19265.451
-78451	-10356.155
-78331	-3923.6592
-78019	-261.92288
-79149	660.5333
-82837	-849.29315
-83706	-4296.3423
-83531	-9098.185
-83371	-14683.98
-83973	-20572.365
-86854	-26410.709
-89776	-31976.926
-89611	-37149.605
-89052	-41864.293
-89107	-46065.656
-90759	-49675.77
-92889	-52587.57
-94050	-54680.195
-90851	-55859.285
-89478	-56100.695
-90690	-55484.87
-92437	-54206.64
-91616	-52555.902
-88898	-50871.56
-87455	-49471.465
-88242	-48587.207
-89801	-48313.668
-88750	-48582.652
-87537	-49182.105
-88671	-49811.83
-88448	-50167.543
-90904	-50024.254
-92132	-49306.168
-92320	-48122.734
-93391	-46756.152
-96601	-45602.86
-98024	-45085.28
-96710	-45526.445
-95488	-47034.13
-93216	-49505.66
-98322	-52601.047
-140387	-55771.02
-144626	-58361.883
-134297	-59732.35
-128301	-59391.562
-143936	-57103.7
-113739	-52975.637
-83266	-47423.934
-78910	-41103.65
-73541	-34813.61
-65590	-29333.434
-64770	-25285.367
-62532	-23030.996
-59082	-22620.225
-59034	-23799.9
-57990	-26081.674
-58221	-28844.645
-59481	-31446.262
-59234	-33331.29
-55449	-34107.004
-53228	-33564.7
-56151	-31701.67
-57569	-28665.08
-55921	-24690.812
-54486	-20048.217
-54056	-14994.779
-53716	-9752.346
-52179	-4503.702
-50779	592.0945
-50624	5379.3584
-50264	9693.257
-50293	13364.022
-48892	16238.518
-47950	18212.848
-44237	19261.65
-40921	19461.229
-40113	18987.508
-37286	18084.537
-37484	17005.96
-41213	15940.639
-43197	14937.003
-44229	13858.603
-44807	12377.071
-49030	10014.227
-51549	6228.3306
-44816	535.92395
-41887	-7353.0073
-41260	-17422.834
-40238	-29290.809
-38881	-42213.68
-38839	-55166.15
-41156	-66982.7
-42747	-76538.76
-45791	-82936.52
-47111	-85665.62
-46822	-84696.11
-36258	-80494.22
-33084	-73921.58
-31429	-66119.305
-29521	-58302.61
-29897	-51553.812
-30208	-46664.363
-30639	-44039.312
-29953	-43670.973
-27386	-45190.31
-17604	-47993.094
-3865	-51377.746
2465	-54689.457
6263	-57441.97
18189	-59376.69
55682	-60483.133
98351	-60932.152
129777	-60990.695
147094	-60931.617
153646	-60957.61
156849	-61156.996
161473	-61500.496
169846	-61873.74
177353	-62133.086
188388	-62171.156
203021	-61960.934
210520	-61559.746
219238	-61111.37
226741	-60787.08
227265	-60727.402
222581	-60990.445
222478	-61525.25
229394	-62177.832
234944	-62733.49
234713	-62990.977
232892	-62843.973
233061	-62347.1
236925	-61744.57
241006	-61448.96
242336	-61967.95
242660	-63793.15
245756	-67268.07
253189	-72469.805
261209	-79133.16
268205	-86644.17
270467	-94104.055
273164	-100462.45
277714	-104693.26
282686	-105978.29
285718	-103870.25
287808	-98391.945
285373	-90040.555
288589	-79716.73
292655	-68587.93
294220	-57879.066
294289	-48667.734
296302	-41720.816
300803	-37392.027
304678	-35599.293
305124	-35886.477
304333	-37552.336
305389	-39813.992
309111	-41964.586
312608	-43500.195
312671	-44190.066
311263	-44072.445
312344	-43400.598
316192	-42538.887
325121	-41842.96
322952	-41562.094
321408	-41787.094
323465	-42429.445
328838	-43262.64
334509	-43999.523
335744	-44377.566
334074	-44235.023
334689	-43564.094
339613	-42513.39
345795	-41349.87
350436	-40391.258
365689	-39929.426
352056	-40147.344
354968	-41090.21
361569	-42653.027
363362	-44612.418
365370	-46690.84
371524	-48629.117
377420	-50249.19
385947	-51495.414
393226	-52434.613
396363	-53223.805
397956	-54053.883
401783	-55079.95
405055	-56366.902
404138	-57858.836
404256	-59390.28
408478	-60730.332
414907	-61651.305
419502	-62001.254
419698	-61770.344
421249	-61105.14
418582	-60295.176
420909	-59697.535
424816	-59649.66
425018	-60338.992
423889	-61703.168
423086	-63381.72
425930	-64725.523
428366	-64870.492
427523	-62870.383
425068	-57862.938
425144	-49239.094
429423	-36776.664
431592	-20713.941
430748	-1743.8743
429481	19072.244
430106	40457.355
433953	61109.586
436726	79894.96
437391	96004.234
436246	109046.77
437863	119065.234
442491	126472.9
445073	131929.98
445139	136184.75
441964	139914.1
443519	143596.97
448624	147445.88
452415	151402.81
456079	155197.36
452646	158449.78
451752	160791.98
454688	161979.44
456157	161971.48
452903	160957.69
445973	159329.9
442935	157609.78
446008	156344.44
444183	156004.92
422798	156898.92
399641	159111.33
393412	162494.61
396344	166710.6
398548	171303.14
397214	175787.42
382399	179742.44
366989	182875.03
353331	185057.28
361346	186338.34
301989	186916.58
78932	187103.12
92941	187150.39
236014	187271.94
301604	187618.0
131840	188283.53
1561	189242.77
-5865	190375.75
-6869	191537.83
-12813	192591.97
-30516	193439.03
-52379	194036.16
-70638	194401.12
-77444	194600.61
-61695	194729.6
-51698	194896.05
-56475	195199.52
-46476	195707.33
-39969	196456.45
-27114	197452.34
-17442	198678.53
-15043	200105.56
-15092	201699.5
-16696	203428.53
-16647	205265.5
-12927	207187.05
-16776	209176.92
-26471	211223.4
-36818	213321.5
-40831	215474.17
-44832	217700.34
-56781	220039.19
-64476	222545.05
-71059	225284.86
-46840	228319.72
-10549	231696.33
-2875	235439.55
3082	239529.06
4549	243894.86
5170	248419.28
6282	252947.95
5984	257315.61
3797	261370.05
3183	264994.75
934	268134.06
-1502	270800.06
-5386	273067.84
-10807	275057.4
-8169	276904.12
-6907	278731.1
-6212	280618.75
-3860	282588.7
-1878	284598.97
-1073	286557.97
-1472	288345.0
-1509	289849.0
-1859	290999.12
-723	291788.3
-192	292285.44
-2873	292628.12
-3757	292997.53
-1607	293582.84
-1437	294543.88
-2106	295974.1
-2800	297879.53
-2132	300178.3
-3739	302720.44
-5751	305320.53
-6072	307795.6
-5169	310013.47
-4286	311931.06
-5129	313607.94
-6564	315197.94
-8285	316913.38
-11587	318975.72
-15659	321557.88
-22715	324735.5
-35732	328452.12
-45629	332508.3
-42249	336583.72
-29063	340284.06
-18367	343210.66
-16969	345031.4
-15332	345541.03
-15960	344698.25
-22442	342631.53
-17349	339606.16
-14179	335969.9
-15999	332068.4
-18464	328155.0
-18774	324311.8
-9144	320397.3
-13856	316039.4
-51381	310665.38
-123709	303565.4
-137910	293964.7
-103671	281142.28
-79846	264550.8
-216909	243931.83
-308213	219301.77
-242846	190957.95
-394471	159554.2
-308563	125892.31
-72127	90915.71
13189	55692.785
85314	21275.959
139904	-11341.042
93056	-41245.16
44662	-67665.14
11711	-89982.234
-2902	-107741.48
-8287	-120659.72
-12026	-128638.35
-11419	-131782.16
-10247	-130415.29
-8285	-125092.19
-8114	-116589.96
-11197	-105879.2
-13962	-94069.64
-14876	-82330.09
-15063	-71786.36
-14584	-63413.98
-13296	-57928.32
-12229	-55703.29
-12321	-56722.535
-12112	-60574.83
-12622	-66496.09
-13767	-73455.53
-13289	-80279.6
-13114	-85797.11
-12794	-88987.836
-11410	-89114.914
-10746	-85820.83
-10151	-79186.5
-5050	-69713.91
-5825	-58273.168
-6122	-45989.82
-6011	-34090.17
-5924	-23732.582
-5944	-15845.451
-6439	-10992.875
-8097	-9295.211
-10276	-10416.134
-14432	-13621.564
-31360	-17903.354
-96883	-22145.799
-115178	-25343.725
-136912	-26753.842
-157229	-26028.785
-162302	-23272.041
-158081	-18999.611
-178104	-14014.714
-183672	-9242.814
-153662	-5534.0264
-121837	-3467.5068
-110498	-3227.0208
-111004	-4566.572
-111579	-6870.053
-111897	-9296.884
-103562	-10985.509
-93813	-11262.966
-90671	-9813.849
-84747	-6771.2227
-82632	-2696.28
-75749	1541.6171
-72697	4970.1587
-70437	6749.8354
-68347	6386.055
-67187	3862.1633
-66803	-342.86087
-67486	-5361.484
-68756	-10146.37
-69866	-13733.953
-71019	-15496.0205
-71791	-15314.69
-73307	-13627.387
-73420	-11321.622
-72351	-9497.84
-72781	-9152.124
-73162	-10863.072
-73424	-14561.977
-73973	-19459.193
-75276	-24168.938
-77313	-27018.09
-79554	-26490.01
-81084	-21700.9
-82717	-12791.338
-85931	-1126.4261
-89035	10769.725
-87536	19564.691
-85999	21714.236
-84826	14198.56
-84471	-4743.972
-84338	-35055.855
-84646	-74603.68
-87437	-119298.47
-94231	-163607.95
-111718	-201389.94
-92379	-226911.92
-78752	-235841.92
-107062	-226041.12
-134354	-198032.81
-99741	-154988.39
-76266	-102161.836
-71024	-46149.637
-68116	6187.967
-66157	48857.562
-53142	77710.3
-57123	90960.305
-49259	89275.94
-51014	75506.87
-72651	54015.703
-89842	29785.586
-93407	7496.0566
-89364	-9257.806
-93237	-18465.3
-106476	-19857.584
-114502	-14708.359
-124822	-5354.058
-130211	5416.262
-118359	14994.589
-108012	21464.686
-93109	23895.473
-79118	22390.361
-87779	17909.666
-90784	11922.812
-71532	6007.0693
-63426	1493.6882
-46029	-785.0885
-37932	-581.67804
-62097	1828.8632
-75387	5803.633
-82199	10555.961
-83912	15356.514
-81769	19656.074
-83153	23119.84
-113069	25561.764
-88704	26803.762
-79192	26591.23
-78560	24500.875
-77376	19947.69
-77526	12286.887
-79137	988.6671
-81665	-14155.574
-85968	-32854.375
-88222	-54223.125
-92793	-76807.88
-105764	-98741.96
-136081	-118009.91
-156707	-132777.55
-163852	-141708.31
-174580	-144193.42
-134933	-140474.53
-97338	-131577.3
-94862	-119114.85
-97977	-104999.19
-96283	-91099.83
-97734	-78930.46
-96796	-69431.46
-84750	-62883.61
-77692	-58955.105
-73497	-56873.504
-68223	-55670.65
-65164	-54437.816
-62714	-52534.938
-61074	-49711.645
-61983	-46118.773
-65537	-42220.465
-70208	-38634.13
-73844	-35947.363
-74861	-34558.184
-74847	-34575.68
-75829	-35803.645
-78711	-37804.316
-78946	-40023.58
-78920	-41936.39
-78926	-43177.11
-78776	-43620.895
-78644	-43396.656
-77479	-42830.934
-76016	-42343.58
-76876	-42324.465
-79599	-43022.473
-82226	-44475.375
-82984	-46499.97
-83217	-48747.58
-79821	-50804.72
-76414	-52307.223
-65812	-53053.15
-62092	-53059.61
-68868	-52567.344
-84582	-51986.445
-93710	-51795.35
-88056	-52418.113
-78675	-54097.082
-73972	-56804.625
-79075	-60206.914
-132246	-63717.457
-150578	-66622.23
-150622	-68207.22
-149868	-67847.47
-158050	-65174.402
-110856	-60244.793
-77572	-53398.926
-75453	-45338.473
-75268	-37044.707
-74712	-29551.375
-74438	-23832.545
-79604	-20677.314
-105317	-20556.082
-90044	-23603.426
-84929	-29592.49
-86187	-37973.906
-89113	-47939.49
-91965	-58506.91
-92804	-68620.89
-91876	-77255.164
-89046	-83513.08
-85931	-86716.78
-85424	-86481.99
-85723	-82772.02
-87415	-75921.7
-88826	-66622.41
-85174	-55865.918
-84083	-44839.207
-83327	-34787.117
-83589	-26848.457
-84902	-21893.883
-86106	-20388.754
-86004	-22308.86
-85725	-27129.38
-85517	-33895.883
-86419	-41372.645
-86437	-48249.35
-88077	-53367.805
-86094	-55933.65
-84744	-55668.793
-84104	-52870.223
-84214	-48367.492
-79193	-43378.27
-69108	-39285.145
-57831	-37375.23
-40454	-38595.08
-24585	-43360.766
-38712	-51461.613
-51934	-62095.09
-29454	-74007.08
-36688	-85670.016
-34442	-95585.14
-55849	-102504.836
-40569	-105641.65
-17399	-104762.03
-4409	-100185.34
-2776	-92674.88
-5161	-83277.62
-71250	-73116.19
-216096	-63195.93
-74453	-54347.0
-10152	-47025.59
-9646	-41360.992
-9656	-37231.816
-16982	-34364.555
-23157	-32448.752
-25112	-31226.992
-12539	-30551.91
-17449	-30377.803
-22575	-30733.078
-26782	-31653.95
-31036	-33122.65
-30983	-35028.383
-39868	-37158.562
-33442	-39240.047
-46885	-40990.53
-74387	-42196.67
-95738	-42778.773
-117749	-42814.766
-136126	-42525.87
-177879	-42209.645
-237089	-42156.26
-317174	-42552.832
-455406	-43401.406
-683398	-44488.074
-1019083	-45412.65
-1480529	-45674.8
-2092874	-44946.742
-2887252	-43032.926
-3838226	-40023.89
-4848048	-36337.434
-5768947	-32683.936
-6604234	-29954.928
-7424892	-29053.81
-8252682	-30702.762
-8388608	-35263.547
-8388608	-42616.93
-8388608	-52129.965
-8388608	-62724.773
-8388608	-73039.26
-8388608	-81651.016
-8388608	-87321.836
-8388608	-89207.055
-8388608	-87016.37
-8388608	-81054.14
-8388608	-72146.56
-8388608	-61493.176
-8388608	-50477.08
-8388608	-40417.312
-8388608	-32361.984
-8388608	-26950.291
-8388608	-24352.568
-8388608	-24301.775
-8388608	-26179.895
-8388608	-29167.834
-7799717	-32395.314
-7184206	-35073.82
-6617894	-36603.145
-6104574	-36629.35
-5606606	-35054.62
-5123297	-32007.816
-4668493	-27794.258
-4235329	-22841.098
-3826727	-17634.395
-3439479	-12661.137
-3032711	-8359.195
-2590786	-5060.3486
-2138604	-2945.8716
-1720503	-1953.971
-1350121	-1990.0199
-1015768	-2694.7678
-752972	-3556.9375
-536172	-3984.652
-347417	-3415.2615
-225795	-1413.5819
-180709	2238.9521
-166641	7465.742
-187147	13907.971
-202193	20991.428
-204403	28064.89
-194160	34568.625
-199084	40217.152
-204719	45072.008
-201487	49576.035
-187467	54461.902
-166164	60561.48
-143868	68556.97
-131319	78731.97
-109301	90781.57
-98763	103763.5
-93778	116200.73
-82946	126348.03
-76736	132581.03
-77984	133822.81
-88448	129894.02
-80080	121697.664
-67725	111196.36
-65543	101101.19
-67161	94365.125
-67115	93558.5
-66138	100241.75
-66543	114504.32
-64644	134797.25
-61089	158126.12
-60637	180594.52
-64465	198215.81
-69628	207817.9
-71796	207839.1
-72316	198820.7
-72423	183439.86
-71888	166024.73
-72951	151610.34
-71627	144693.92
-68964	147946.78
-66232	161166.53
-67343	180730.47
-68889	199727.39
-64014	208814.03
-61376	197696.12
-58861	156978.69
-55154	80052.67
-52542	-35359.18
-49222	-186325.25
-45497	-364711.56
-36973	-558118.94
-29569	-751613.9
-25411	-929958.2
-18872	-1079941.4
-13799	-1192369.9
-13109	-1263359.2
-10490	-1294684.9
-7649	-1293127.4
-6319	-1268986.0
-6686	-1234040.1
-7527	-1199380.1
-20937	-1173533.9
-22327	-1161252.2
2286	-1163141.0
7730	-1176168.6
11638	-1194885.4
5342	-1213053.2
2761	-1225297.8
-27	-1228375.6
-5317	-1221871.6
-11592	-1208115.8
-20559	-1191401.5
-41821	-1176729.6
-86734	-1168434.5
-146353	-1168982.2
-217477	-1178284.8
-353866	-1193692.2
-556356	-1210680.0
-851552	-1224052.4
-1265872	-1229366.0
-1810989	-1224344.2
-2490989	-1209552.1
-3294345	-1188524.9
-4168077	-1167090.4
-5109089	-1152010.0
-6027289	-1149245.1
-6716533	-1162226.0
-7229677	-1190518.2
-7487279	-1229243.4
-7430796	-1269426.4
-7189492	-1299266.4
-6860692	-1306129.8
-6410422	-1278883.0
-5884643	-1210114.2
-5365881	-1097800.1
-4837102	-946054.94
-4325499	-764797.9
-3834155	-568378.4
-3376547	-373403.75
-2980327	-196165.75
-2632493	-50149.453
-2322248	55929.562
-2056449	119213.34
-1832962	142749.39
-1635927	134624.23
-1464132	105969.13
-1315026	69046.98
-1181527	35053.805
-1061701	12389.591
-942781	5613.3237
-840663	15223.215
-742793	38206.24
-639420	69183.94
-537520	101858.54
-443133	130437.99
-360506	150769.12
-289501	160961.02
-233427	161437.81
-189350	154522.17
-158549	143643.7
-147240	132445.12
-130294	123935.125
-118592	119930.695
-104784	120838.59
-92727	125785.516
-86306	133008.12
-84332	140402.36
-82596	146102.0
-80372	148763.1
-74529	147863.62
-69984	143699.73
-74412	137181.72
-78405	129541.086
-74026	122020.555
-64445	115631.66
-59587	111013.68
-55517	108421.15
-57092	107790.914
-59559	108855.14
-47958	111250.26
-37114	114593.8
-32982	118516.21
-27242	122638.586
-25260	126568.24
-29674	129908.68
-33860	132306.81
-34506	133552.47
-37510	133689.94
-32222	133106.61
-24999	132542.83
-26731	132990.64
-35239	135484.88
-49806	140818.36
-61226	149242.12
-68727	160319.4
-78991	172688.4
-84385	184344.38
-84934	193025.25
-84495	196747.34
-72711	194372.08
-57795	186065.22
-45299	173500.81
-40625	159708.52
-45434	148539.72
-52664	143814.45
-57933	148306.12
-58446	162776.08
-54379	185290.86
-52151	211018.38
-51466	232612.6
-51515	241180.94
-40050	227699.72
-37778	184641.38
-36058	107489.4
-36027	-4152.5303
-43887	-146108.9
-54389	-309963.94
-62284	-484145.84
-64660	-655586.56
-64334	-811657.7
-61371	-942027.3
-65594	-1040094.7
-72122	-1103747.4
-85491	-1135315.6
-75794	-1140765.4
-62666	-1128322.8
-54907	-1106821.0
-55001	-1084121.8
-58839	-1065917.8
-62017	-1055131.8
-60141	-1051964.9
-53536	-1054542.8
-50732	-1059944.0
-49066	-1065334.6
-49736	-1068909.9
-63469	-1070473.2
-56141	-1071290.4
-49388	-1073846.2
-44531	-1080796.4
-39964	-1093926.9
-38953	-1113261.6
-42242	-1136544.1
-51889	-1159230.2
-61379	-1175046.4
-67941	-1177017.8
-67039	-1158737.9
-60563	-1115634.5
-59539	-1045949.4
-73556	-951229.7
-79064	-836226.0
-102527	-708206.1
-125666	-575849.9
-121826	-447927.78
-94265	-332007.97
-63146	-233450.36
-40916	-154853.81
-37758	-96037.87
-47728	-54502.914
-64749	-26246.531
-60784	-6744.115
-49483	8139.5376
-21919	21458.186
-15257	34850.703
-14456	48546.98
-12014	61703.94
-10628	72938.8
-14601	80901.97
-29156	84753.92
-45202	84440.65
-31691	80723.36
-23359	74999.65
-24926	68957.88
-46814	64185.2
-67977	61817.887
-43264	62321.41
-21798	65468.832
-27336	70472.08
-36122	76224.414
-49683	81599.484
-42525	85708.695
-32277	88074.83
-30158	88671.85
-20503	87833.4
-16012	86083.83
-19428	83929.57
-28167	81677.54
-49277	79340.27
-73275	76636.58
-91734	73092.74
-97779	68212.1
-91361	61661.79
-82886	53426.566
-70628	43876.74
-68224	33743.56
-73533	23992.877
-77122	15630.019
-75355	9489.379
-78603	6060.066
-88447	5379.8667
-91405	7027.9976
-92414	10223.868
-99377	14000.103
-102825	17403.756
-104999	19696.02
-104599	20482.68
-100617	19755.555
-100670	17863.078
-102901	15380.291
-102644	12941.192
-103002	11061.696
-118011	10006.927
-115235	9715.311
-97735	9819.1
-87351	9743.525
-76711	8852.514
-67056	6619.8516
-60171	2771.6484
-50563	-2634.411
-42153	-9184.985
-32683	-16186.425
-24516	-22798.088
-19252	-28136.207
-15276	-31609.36
-14507	-32936.094
-13110	-32200.334
-8384	-29830.207
-6523	-26503.96
-3503	-23008.646
-6204	-20075.93
-8158	-18237.791
8355	-17730.127
192300	-18494.732
681928	-20236.393
740999	-22328.76
360852	-24031.535
61304	-24773.518
6004	-24279.242
484	-22597.004
-2544	-20124.39
-4547	-17547.615
-7049	-15709.799
-8221	-15440.176
-8938	-17376.852
-10707	-21819.637
-13068	-28644.732
-16531	-37342.09
-20811	-46904.24
-28477	-56249.86
-44472	-64263.793
-68719	-69984.83
-98565	-72761.03
-133393	-72350.1
-175370	-68931.56
-231129	-63046.062
-314259	-55469.97
-451166	-47049.52
-669729	-38536.953
-1017118	-30459.764
-1582299	-23184.139
-2399622	-16791.133
-3566526	-11189.06
-5139818	-6223.6167
-7078324	-1790.6101
-8388608	2068.027
-8388608	5134.745
-8388608	7050.3438
-8388608	7413.906
-8388608	5922.363
-8388608	2511.0493
-8388608	-2546.2483
-8388608	-8609.974
-8388608	-14741.172
-7925366	-19854.31
-7193016	-22928.148
-6498484	-23235.49
-5821564	-20534.498
-5191345	-15169.515
-4635041	-8048.7603
-4155579	-500.75757
-3763345	5973.7
-3440677	10000.512
-3161527	10613.029
-2924127	7463.3013
-2720402	905.1223
-2519539	-8077.36
-2324246	-18075.047
-2161943	-27551.898
-2019424	-35171.105
-1886645	-40072.062
-1760912	-42030.26
-1641989	-41471.67
-1523449	-39331.29
-1402286	-36698.652
-1281652	-34768.848
-1165029	-34340.09
-1051182	-35685.223
-947119	-38503.164
-850033	-42026.992
-749863	-45264.742
-641590	-47302.117
-534952	-47582.164
-429471	-46097.344
-322072	-43421.99
-223444	-40569.273
-150379	-38703.668
-105924	-38780.438
-100687	-41202.906
-90694	-45607.05
-74115	-50818.43
-65233	-55028.477
-58871	-56170.74
-28491	-52422.61
-16922	-42694.125
-14886	-27025.008
-12217	-6738.54
-10689	15690.925
-9193	37061.91
-9374	54098.35
-18771	64199.633
-23163	66123.15
-10209	60449.36
-15301	49713.203
-12870	38107.758
-8397	30821.598
-9846	33088.887
-11845	49133.523
-15002	81197.414
-17021	128873.81
-23076	188884.81
-41827	255374.28
-78134	320690.56
-113801	376537.94
-153598	415317.38
-185606	431407.06
-222637	422172.03
-266682	388498.3
-323536	334752.94
-383777	268172.94
-423808	197750.4
-407326	132828.86
-381920	81648.44
-364117	50041.562
-351126	40513.15
-336689	51846.52
-311351	79291.62
-274981	115294.77
-255333	150648.9
-229597	175853.47
-203732	182493.89
-185018	164417.56
-166644	118540.586
-145322	45169.61
-128917	-52149.473
-117544	-167234.62
-104204	-292195.5
-92711	-418514.4
-85827	-538111.6
-87411	-644253.3
-84461	-732187.1
-76814	-799437.75
-74732	-845770.2
-61286	-872879.9
-51209	-883864.75
-46618	-882632.6
-39262	-873297.8
-35307	-859696.44
-37596	-845048.0
-39106	-831781.2
-38756	-821502.9
-39729	-815067.6
-39536	-812701.4
-39766	-814144.06
-39400	-818751.1
-38003	-825577.56
-35946	-833434.5
-34407	-840970.56
-35622	-846794.56
-35759	-849635.1
-34636	-848545.7
-40105	-843142.44
-34561	-833811.9
-32454	-821829.2
-31493	-809321.94
-29596	-799052.94
-27462	-794022.7
-27846	-796925.6
-28406	-809548.3
-27851	-832215.06
-27013	-863402.75
-25871	-899625.4
-26236	-935653.25
-26909	-965065.2
-27632	-981076.4
-26455	-977521.2
-26276	-949829.1
-26681	-895824.1
-28006	-816198.2
-28061	-714565.8
-27492	-597064.8
-26736	-471556.16
-26161	-346561.38
-26867	-230112.25
-26649	-128703.18
-25949	-46521.137
-26506	14919.506
-26999	56696.215
-30647	81989.266
-33574	95291.73
-36000	101487.4
-40530	104970.555
-43876	108963.66
-37802	115149.48
-37584	123670.305
-39726	133427.61
-39301	142614.88
-38464	149348.98
-40044	152237.88
-40036	150767.5
-39691	145437.14
-37547	137618.03
-37494	129191.71
-39517	122051.71
-39492	117593.65
-37159	116311.93
-34597	117592.52
-32701	119750.12
-31843	120300.234
-30103	116410.16
-27970	105442.21
-26146	85473.01
-26517	55697.977
-28857	16640.143
-31145	-29853.04
-31734	-80856.12
-31471	-132870.92
-33478	-182141.38
-36387	-225100.97
-38303	-258910.36
-39326	-281804.62
-40226	-293166.97
-44572	-293464.75
-42843	-284064.16
-42454	-266943.9
-41262	-244384.61
-39869	-218668.28
-39258	-191838.08
-39789	-165538.52
-39492	-140943.81
-38124	-118762.984
-36878	-99302.555
-36454	-82560.234
-36964	-68329.01
-36856	-56292.8
-35931	-46099.254
-34662	-37408.14
-35513	-29916.596
-39227	-23369.133
-42753	-17558.14
-44040	-12325.068
-44255	-7497.2344
-45879	-3038.167
-39422	1039.8044
-34262	4686.527
-19427	7821.878
-10767	10356.619
-7614	12209.611
-5874	13326.723
-983	13697.182
3385	13365.652
3792	12434.514
4376	11054.551
4399	9408.887
4404	7690.1387
4550	6076.2646
4644	4709.245
5221	3680.4463
5628	3025.2915
5698	2727.1646
5078	2729.0225
4655	2949.359
4634	3299.0698
4757	3695.5762
4756	4071.5542
4466	4377.732
4081	4580.391
4048	4656.0063
4209	4586.168
4323	4354.841
4291	3949.6924
3902	3367.0894
3568	2619.0674
3626	1739.3601
3734	785.6642
3786	-210.88483
3686	-1069.094
3825	-1744.4949
3916	-2218.1768
3848	-2508.8806
3733	-2676.8088
3433	-2820.1975
3543	-3064.9355
3737	-3545.6038
3693	-4377.381
3681	-5630.9307
3721	-7315.7676
4088	-9372.59
4286	-11676.542
4385	-14058.615
4431	-16328.739
4096	-18319.26
3943	-19915.875
4153	-21071.54
4691	-21807.77
5392	-22213.36
4198	-22407.518
4078	-22510.73
4373	-22616.414
4523	-22767.512
4346	-22947.676
3832	-23087.805
3637	-23083.172
3738	-22824.754
3612	-22237.396
3306	-21294.697
2855	-20040.535
2849	-18588.201
3022	-17102.484
2565	-15773.845
2391	-14785.965
2094	-14285.687
2393	-14360.182
3021	-15025.221
1634	-16224.996
-719	-17852.688
-1660	-19770.326
-924	-21835.85
-542	-23918.39
-559	-25909.664
-560	-27724.133
-1129	-29293.727
-2394	-30560.709
-4424	-31483.275
-5950	-32023.291
-5439	-32147.592
-5121	-31840.54
-4711	-31122.06
-3261	-30065.695
-1389	-28809.309
1111	-27540.938
2749	-26484.484
2324	-25864.691
1029	-25862.027
16	-26570.54
-642	-27964.777
-1657	-29880.93
-2232	-32023.635
-859	-34001.027
-317	-35377.996
-66	-35744.047
275	-34780.67
607	-32322.564
803	-28393.752
1298	-23208.57
6081	-17151.346
7517	-10716.087
1771	-4432.139
1880	1207.4747
1408	5819.5356
2088	9179.594
2616	11241.322
3067	12125.641
3534	12084.707
3344	11445.628
2801	10548.071
2610	9686.061
2483	9065.3
2293	8782.101
2406	8825.638
2904	9101.542
3899	9467.1455
4321	9771.646
4523	9896.306
4439	9773.881
4272	9402.135
3815	8837.702
3605	8176.7705
3936	7529.2886
4091	6993.7485
3454	6635.8574
3136	6476.2715
3678	6490.463
4685	6618.4077
4989	6782.137
4931	6904.4976
5153	6926.517
5560	6818.379
6403	6584.106
6808	6257.8413
7008	5893.9565
7024	5553.0327
6788	5288.333
7342	5134.776
7398	5103.26
7031	5180.5874
6727	5333.4653
7004	5516.7036
7163	5683.8545
6946	5795.732
6723	5828.2397
6332	5774.6997
6326	5644.867
6750	5462.0723
6472	5257.579
6120	5059.8438
5673	4892.326
5639	4768.308
5955	4687.2593
5845	4635.6606
5486	4590.995
4994	4525.5654
4937	4412.7764
5223	4232.3096
5333	3975.7712
5167	3649.487
4596	3273.1594
4634	2875.972
4959	2491.287
4921	2149.4414
4789	1870.2076
4617	1656.0884
4745	1489.1005
5058	1331.7952
4918	1133.3478
4369	839.1116
3969	402.1581
4974	-205.17233
6263	-981.0262
6174	-1887.6566
6557	-2853.453
5724	-3781.0747
5317	-4562.436
6326	-5097.198
7716	-5309.1924
9908	-5165.266
10872	-4681.6445
11996	-3925.3123
11843	-3004.4382
12702	-2051.8083
12327	-1201.5854
11907	-567.05347
12576	-221.10323
14686	-183.39949
14857	-416.56946
12032	-833.7398
10521	-1316.6786
11664	-1738.1958
11824	-1985.1503
10256	-1978.8917
10288	-1689.3644
14386	-1140.0815
31668	-404.8219
38815	413.64514
45632	1200.5289
48935	1849.1915
57946	2280.8184
73803	2453.2668
101576	2368.0894
139304	2067.6152
208260	1617.9503
200023	1121.0426
191117	668.3741
188501	333.71838
197589	160.00938
219309	154.82883
260411	290.4656
425964	486.76956
537135	678.56726
519912	828.5949
539826	891.76874
584697	842.32733
620420	681.2446
653422	427.10623
710866	103.38605
749129	-256.1181
771834	-620.2311
716626	-949.9481
674979	-1230.1512
668188	-1465.0674
656043	-1663.5056
654088	-1841.6356
643462	-2010.5603
631516	-2175.3586
635709	-2336.6956
638967	-2486.4697
650829	-2616.4058
665148	-2721.6323
680183	-2806.9685
690211	-2889.8606
702185	-3003.159
699469	-3186.597
702372	-3486.1367
730074	-3946.5261
761879	-4594.3774
771948	-5426.2495
763501	-6408.874
728868	-7480.6606
547943	-8533.635
108797	-9415.861
-13999	-10104.129
-59731	-10603.012
-193129	-10940.206
-138503	-11244.365
-17329	-11666.228
-18351	-12316.266
-12027	-13282.891
-15184	-14587.454
-28952	-16172.353
-46574	-17909.445
-42821	-19629.668
-30869	-21156.162
-21667	-22348.197
-19514	-23141.219
-23911	-23572.164
-35282	-23779.752
-46168	-23980.209
-53102	-24417.977
-56401	-25303.477
-53424	-26754.178
-48091	-28751.805
-47299	-31130.764
-49904	-33606.715
-53149	-35838.836
-57934	-37512.94
-58915	-38427.8
-53982	-38558.824
-43888	-38080.574
-44404	-37336.016
-45837	-36764.26
-43461	-36790.13
-43967	-37705.17
-44993	-39575.44
-43249	-42200.12
-40139	-45136.535
-37935	-47794.633
-37425	-49582.402
-37957	-50069.59
-37497	-49126.56
-36023	-46999.258
-34127	-44293.617
-33869	-41861.96
-36322	-40610.78
-39409	-41269.83
-41047	-44175.805
-39416	-49127.4
-38699	-55353.47
-41510	-61613.664
-46901	-66420.805
-66589	-68336.055
-73867	-66287.125
-78799	-59809.805
-80420	-49170.504
-57750	-35327.652
-52720	-19709.799
-45706	-3888.1921
-44336	10819.875
-47795	23707.283
-49059	34915.867
-50067	45497.09
-51814	57259.34
-62084	72441.414
-59129	93258.06
-56599	121438.13
-43666	157831.12
-47972	202191.95
-47979	253161.92
-48664	308474.28
-51575	365318.06
-51817	420782.88
-49054	472277.62
-47014	517839.88
-46607	556271.8
-47187	587090.2
-46963	610334.5
-43899	626302.3
-41174	635313.9
-40343	637589.25
-40433	633282.0
-39466	622671.56
-37656	606465.2
-36726	586096.0
-36878	563908.94
-37254	543127.56
-36927	527535.9
-35340	520895.75
-34741	526176.6
-35013	544744.4
-35922	575701.0
-35999	615547.3
-35561	658302.3
-35350	696129.25
-35943	720402.2
-36976	723068.56
-37262	698056.06
-36786	642472.1
-36726	557349.6
-38368	447763.75
-52862	322272.72
-57807	191739.16
-58876	67748.26
-59314	-39119.113
-63395	-120843.07
-50315	-173083.9
-42381	-195650.7
-39961	-192271.77
-38917	-169721.6
-39181	-136486.28
-39632	-101234.414
-39986	-71382.62
-42027	-52009.496
-39421	-45298.484
-38927	-50562.254
-39388	-64800.99
-39239	-83631.625
-37828	-102370.734
-36779	-117038.98
-37558	-125093.69
-38312	-125769.555
-37355	-119998.64
-36168	-109975.39
-36183	-98498.85
-41975	-88262.64
-40177	-81258.8
-37289	-78406.914
-34622	-79475.91
-33997	-83279.625
-35624	-88072.82
-37143	-92034.49
-38187	-93714.08
-38023	-92341.805
-37801	-87941.47
-38468	-81243.78
-39322	-73439.24
-40339	-65849.83
-40520	-59606.566
-40611	-55411.203
-41928	-53431.99
-43266	-53344.383
-44373	-54490.523
-44595	-56102.33
-44506	-57524.652
-44636	-58377.6
-45702	-58621.59
-45042	-58517.535
-43524	-58500.023
-43018	-59006.285
-45397	-60312.383
-49134	-62425.73
-52759	-65058.95
-55762	-67689.97
-57073	-69690.62
-59557	-70487.97
-50827	-69716.96
-47412	-67318.336
-46149	-63557.695
-46447	-58971.344
-46821	-54244.188
-47287	-50058.605
-48504	-46946.28
-47581	-45183.48
-46918	-44744.035
-47659	-45344.1
-48271	-46496.348
-48059	-47651.12
-46882	-48323.836
-46171	-48194.754
-46765	-47158.883
-47157	-45310.12
-46970	-42930.434
-45432	-40370.723
-44736	-37926.316
-43969	-35808.703
-43676	-34108.344
-42822	-32787.637
-40734	-31714.451
-39450	-30727.86
-39436	-29684.445
-39162	-28510.646
-38129	-27196.662
-36462	-25807.082
-35672	-24457.459
-36159	-23259.11
-37147	-22285.549
-36950	-21544.51
-35647	-20978.39
-35046	-20493.846
-35601	-19996.39
-36462	-19436.25
-36726	-18839.527
-36004	-18319.172
-35896	-18056.613
-37070	-18265.09
-38051	-19128.537
-37852	-20747.105
-36538	-23099.41
-36177	-26020.701
-38214	-29209.19
-42638	-32271.99
-44809	-34806.344
-45469	-36463.26
-47241	-36930.355
-49032	-36143.223
-41832	-34257.004
-38618	-31544.125
-36384	-28416.8
-35942	-25340.035
-36731	-22694.55
-37959	-20748.385
-37049	-19618.13
-35527	-19263.875
-35001	-19514.531
-35437	-20124.19
-35959	-20829.398
-35553	-21402.84
-33857	-21693.838
-32747	-21647.594
-32712	-21299.76
-33428	-20753.59
-34000	-20143.832
-34202	-19597.588
-33444	-19204.29
-33632	-18998.697
-34027	-18960.635
-34783	-19031.324
-34781	-19140.342
-34532	-19231.523
-35519	-19283.95
-36242	-19320.633
-36816	-19403.19
-36297	-19608.594
-35942	-20005.225
-37346	-20629.979
-37141	-21470.766
-36261	-22462.691
-34713	-23500.348
-34144	-24461.023
-34683	-25234.578
-35433	-25752.975
-35051	-26011.041
-34394	-26072.834
-34153	-26060.832
-34761	-26130.184
-35477	-26433.004
-35817	-27081.244
-34189	-28117.418
-33618	-29498.383
-35462	-31098.793
-38854	-32731.62
-41309	-34182.766
-42855	-35254.19
-44667	-35797.33
-47317	-35749.52
-39651	-35145.99
-36950	-34105.348
-35556	-32817.19
-35430	-31492.969
-36687	-30331.92
-37249	-29484.676
-37306	-29028.957
-36522	-28963.941
-36466	-29217.4
-37478	-29667.76
-38386	-30168.885
-38502	-30586.256
-37793	-30815.877
-37317	-30803.424
-38172	-30537.162
-39311	-30045.564
-39876	-29381.33
-38584	-28603.312
-37864	-27761.938
-39201	-26891.094
-40257	-26006.758
-39680	-25112.596
-38556	-24209.03
-38266	-23303.354
-38842	-22416.986
-39392	-21585.89
-39194	-20854.55
-38096	-20265.545
-38026	-19847.31
-38312	-19604.64
-38661	-19513.703
-38502	-19525.121
-37350	-19575.162
-36526	-19601.506
-37151	-19561.42
-38031	-19446.135
-37651	-19288.344
-36556	-19158.95
-36148	-19153.83
-37117	-19372.314
-37940	-19892.373
-37268	-20747.514
-36429	-21910.828
-36346	-23291.492
-38481	-24744.266
-42561	-26091.625
-45603	-27155.434
-46822	-27784.152
-48411	-27885.934
-50907	-27444.643
-43377	-26525.36
-40492	-25254.281
-39559	-23803.986
-39077	-22356.625
-39371	-21071.135
-39864	-20058.467
-39601	-19366.832
-38508	-18980.295
-37778	-18830.49
-38554	-18816.596
-39229	-18833.955
-38934	-18796.89
-37492	-18656.494
-36663	-18408.229
-37208	-18088.76
-38026	-17763.174
-37142	-17506.34
-35655	-17383.271
-34861	-17433.885
-35676	-17664.309
-36321	-18047.902
-35940	-18530.904
-34620	-19049.533
-34389	-19542.572
-35332	-19963.402
-35712	-20286.607
-35607	-20507.605
-35019	-20637.287
-34139	-20692.64
-34612	-20686.928
-35615	-20623.258
-35496	-20493.33
-34384	-20282.188
-33916	-19977.318
-34804	-19580.463
-35592	-19117.809
-35394	-18644.23
-34283	-18240.39
-33749	-18001.244
-34678	-18018.475
-35231	-18360.34
-35029	-19052.764
-33736	-20066.5
-33394	-21315.186
-35359	-22664.252
-39002	-23950.81
-41389	-25010.633
-41904	-25706.912
-43121	-25954.742
-45521	-25736.79
-38204	-25109.668
-35901	-24186.846
-33706	-23124.752
-32923	-22089.354
-33895	-21228.012
-34644	-20646.047
-34439	-20392.521
-33314	-20457.602
-32981	-20780.639
-34029	-21268.744
-34967	-21818.996
-34754	-22339.387
-34856	-22764.77
-40652	-23063.73
-36133	-23241.842
-35599	-23327.322
-35060	-23359.719
-33671	-23375.965
-33116	-23399.098
-34015	-23433.838
-34647	-23468.127
-34205	-23480.676
-33002	-23450.629
-32436	-23366.861
-34189	-23233.816
-42917	-23070.256
-37065	-22909.057
-33635	-22781.033
-32744	-22705.64
-34099	-22681.994
-35294	-22685.607
-35296	-22672.148
-34311	-22588.453
-34122	-22388.61
-35213	-22051.158
-36157	-21592.668
-35721	-21073.512
-34551	-20593.098
-34382	-20274.568
-34971	-20241.883
-35356	-20592.59
-35116	-21372.69
-33937	-22560.105
-33434	-24060.066
-35332	-25715.027
-38585	-27327.924
-40846	-28694.77
-41951	-29639.25
-42879	-30044.912
-45175	-29875.447
-38837	-29182.219
-36016	-28088.887
-34544	-26772.67
-34194	-25427.127
-35375	-24228.01
-36110	-23303.607
-35472	-22716.201
-34515	-22456.916
-34091	-22456.35
-34844	-22605.338
-35731	-22782.152
-35474	-22879.842
-34684	-22827.107
-33887	-22599.338
-34715	-22217.674
-35291	-21738.025
-34804	-21232.92
-33884	-20771.537
-33380	-20403.287
-34077	-20148.3
-34802	-19997.63
-34236	-19920.41
-33117	-19876.857
-33512	-19831.658
-37872	-19765.18
-35837	-19681.047
-34709	-19600.154
-33398	-19552.748
-32698	-19564.973
-33692	-19646.396
-34549	-19782.457
-33856	-19933.486
-32625	-20043.357
-32204	-20054.156
-33239	-19924.875
-34881	-19648.168
-36841	-19260.684
-33410	-18844.525
-32471	-18513.406
-33432	-18391.553
-34104	-18586.09
-33791	-19158.957
-32542	-20105.98
-32131	-21347.652
-34015	-22736.283
-37355	-24077.738
-39198	-25165.154
-40130	-25816.994
-39712	-25913.74
-48563	-25420.566
-40159	-24403.914
-35024	-23012.896
-33184	-21459.432
-32691	-19976.201
-33589	-18775.102
-34214	-18009.91
-33744	-17750.457
-32751	-17974.244
-32373	-18575.639
-33284	-19391.316
-34071	-20235.506
-33985	-20937.293
-32253	-21372.895
-31647	-21485.018
-32792	-21288.057
-33622	-20857.916
-32914	-20309.695
-31726	-19769.088
-31312	-19344.64
-32377	-19107.174
-33085	-19079.56
-32640	-19237.816
-31621	-19523.338
-31734	-19861.307
-32569	-20180.506
-33302	-20428.814
-32785	-20581.951
-31459	-20643.262
-30892	-20635.652
-31954	-20589.652
-32705	-20530.88
-31931	-20471.193
-30832	-20405.967
-30449	-20318.496
-31642	-20190.285
-32707	-20013.928
-31701	-19803.582
-30319	-19599.69
-30045	-19466.07
-31095	-19478.795
-31852	-19708.492
-31276	-20200.69
-30077	-20958.725
-29940	-21934.605
-32287	-23030.035
-35786	-24109.701
-35749	-25024.424
-42173	-25635.637
-45090	-25846.287
-49756	-25619.06
-39020	-24989.287
-33568	-24051.693
-31812	-22949.264
-31021	-21842.549
-31722	-20879.674
-32341	-20170.123
-31552	-19766.842
-30485	-19660.326
-30234	-19786.592
-31246	-20045.986
-32279	-20328.51
-31243	-20539.133
-29897	-20617.424
-29432	-20547.623
-30565	-20357.416
-31457	-20106.107
-30667	-19865.664
-29404	-19699.695
-29285	-19646.873
-30542	-19711.412
-31424	-19863.998
-31142	-20051.049
-30470	-20210.984
-29717	-20292.035
-30607	-20266.535
-31447	-20138.285
-30925	-19940.668
-29460	-19726.467
-29188	-19551.275
-30355	-19456.629
-31163	-19457.176
-30501	-19535.035
-29066	-19643.623
-28843	-19721.06
-30364	-19709.496
-30913	-19575.314
-30147	-19323.94
-28729	-19005.816
-28429	-18710.531
-29802	-18549.764
-30634	-18632.607
-29942	-19037.89
-28749	-19790.84
-28653	-20849.727
-30771	-22106.502
-32670	-23402.27
-40501	-24552.348
-42430	-25383.367
-43172	-25764.709
-47526	-25633.703
-37146	-25012.152
-31826	-23994.451
-29819	-22735.281
-29011	-21415.867
-29905	-20210.771
-30625	-19257.055
-29855	-18632.24
-28557	-18346.176
-28869	-18346.836
-30026	-18539.152
-29999	-18810.613
-29314	-19057.047
-28102	-19204.305
-27932	-19220.053
-29079	-19114.498
-29971	-18927.63
-29357	-18717.955
-28241	-18539.484
-28074	-18427.102
-29344	-18388.73
-30537	-18406.46
-30566	-18445.111
-28964	-18466.39
-28711	-18442.469
-30043	-18366.482
-30763	-18255.6
-30183	-18145.799
-29190	-18075.771
-29132	-18078.064
-30426	-18160.918
-31216	-18300.805
-30488	-18444.049
-29431	-18518.543
-29334	-18453.482
-30021	-18202.52
-30559	-17763.795
-29759	-17191.414
-28498	-16594.164
-28092	-16120.148
-29196	-15929.424
-29870	-16159.8545
-29017	-16893.463
-27839	-18131.064
-27820	-19781.518
-29242	-21669.678
-39461	-23559.77
-41834	-25198.557
-42141	-26356.744
-43035	-26870.824
-47026	-26672.533
-36501	-25804.729
-31437	-24404.664
-29615	-22683.158
-29096	-20881.918
-30251	-19230.299
-30787	-17907.193
-30172	-17014.398
-29376	-16567.568
-28777	-16505.021
-29606	-16710.295
-30158	-17044.035
-29612	-17376.031
-28587	-17610.93
-28432	-17702.67
-29477	-17655.092
-29912	-17511.088
-29076	-17332.543
-28124	-17179.102
-28296	-17090.65
-30201	-17077.896
-31026	-17123.643
-29750	-17192.025
-28416	-17242.955
-28356	-17247.484
-29762	-17198.69
-30628	-17114.553
-30227	-17030.201
-29496	-16987.48
-29529	-17016.672
-30716	-17122.406
-31444	-17276.912
-30999	-17422.51
-30349	-17484.992
-30126	-17395.25
-31137	-17112.785
-31712	-16646.025
-31022	-16062.122
-30046	-15483.135
-29909	-15066.648
-31081	-14977.492
-31594	-15349.802
-30758	-16252.822
-29679	-17666.893
-29782	-19476.059
-32135	-21479.959
-35119	-23424.074
-36144	-25042.574
-36853	-26104.508
-38946	-26456.193
-40975	-26049.201
-34410	-24951.809
-31805	-23326.328
-30343	-21408.13
-30114	-19456.967
-31387	-17710.879
-31946	-16348.436
-31371	-15463.628
-29971	-15059.742
-30028	-15060.779
-31180	-15337.847
-31707	-15742.646
-30904	-16140.292
-30054	-16434.393
-30124	-16580.012
-31219	-16583.242
-31841	-16488.164
-31005	-16356.72
-30258	-16247.576
-30909	-16199.963
-31714	-16225.919
-32147	-16311.788
-31361	-16427.814
-30494	-16542.191
-30627	-16634.31
-31932	-16702.984
-32555	-16766.572
-31658	-16855.027
-30665	-16995.898
-30501	-17199.541
-32617	-17447.79
-37876	-17690.654
-32989	-17856.781
-30885	-17866.559
-30534	-17657.54
-31486	-17207.943
-31944	-16554.334
-31083	-15796.825
-29997	-15089.438
-29970	-14616.066
-31164	-14555.109
-31878	-15040.376
-31031	-16126.758
-30236	-17768.377
-30586	-19815.953
-32117	-22034.41
-35273	-24138.477
-37189	-25840.643
-38027	-26900.674
-39932	-27170.213
-41794	-26616.342
-35542	-25331.46
-32819	-23508.947
-31059	-21414.78
-31006	-19334.152
-32371	-17522.264
-33248	-16164.58
-31967	-15351.223
-30878	-15071.09
-30812	-15226.258
-32084	-15661.158
-32565	-16200.236
-31687	-16684.754
-30681	-17001.607
-30847	-17099.568
-32218	-16989.523
-32936	-16731.727
-32326	-16413.197
-31757	-16122.604
-31304	-15929.18
-32484	-15868.554
-33033	-15939.927
-32351	-16112.51
-31424	-16339.116
-31491	-16572.215
-33100	-16777.377
-33502	-16941.754
-32576	-17073.152
-31485	-17192.89
-31552	-17324.604
-33241	-17482.215
-33221	-17662.053
-31888	-17840.1
-30791	-17977.39
-30719	-18032.08
-31719	-17974.207
-32000	-17799.512
-30931	-17537.438
-29935	-17251.51
-29852	-17030.164
-30916	-16969.738
-31477	-17152.8
-30698	-17626.941
-29299	-18389.338
-29594	-19380.686
-31797	-20490.998
-34931	-21576.256
-36964	-22482.965
-38546	-23076.926
-39945	-23265.45
-41944	-23017.693
-34958	-22372.035
-32355	-21421.451
-32284	-20303.912
-37141	-19171.373
-34397	-18166.543
-33160	-17396.836
-31131	-16920.594
-29716	-16742.045
-30150	-16817.412
-31961	-17069.383
-32234	-17406.209
-31051	-17740.736
-29977	-18006.115
-30296	-18164.691
-31654	-18209.848
-32147	-18160.875
-31348	-18053.133
-29689	-17927.025
-29853	-17818.045
-31356	-17751.016
-31349	-17738.605
-30061	-17782.73
-29057	-17878.883
-29314	-18020.572
-30632	-18202.701
-31019	-18421.232
-29984	-18670.164
-29251	-18937.24
-30091	-19200.05
-31160	-19425.049
-31621	-19569.705
-30656	-19589.436
-29720	-19447.861
-29931	-19128.834
-31078	-18646.432
-31614	-18050.396
-30772	-17424.277
-29984	-16875.412
-30488	-16518.771
-32089	-16455.795
-32538	-16753.885
-31384	-17429.094
-30591	-18437.47
-30872	-19677.492
-33026	-21003.041
-35772	-22245.443
-36956	-23242.25
-37754	-23860.533
-39146	-24023.578
-41401	-23722.123
-35093	-23016.824
-32359	-22019.865
-31156	-20881.88
-30909	-19760.035
-32029	-18791.686
-32391	-18074.27
-31361	-17652.744
-30311	-17518.158
-30516	-17616.473
-31982	-17864.934
-32626	-18172.656
-31336	-18459.432
-30392	-18669.752
-30846	-18780.05
-33001	-18797.56
-32674	-18753.057
-31007	-18687.734
-30195	-18640.184
-30391	-18636.467
-31642	-18684.42
-32194	-18774.033
-31072	-18882.639
-30316	-18983.168
-30817	-19053.45
-31978	-19082.455
-32407	-19072.611
-31833	-19036.94
-31636	-18992.879
-31547	-18954.459
-32777	-18924.701
-33143	-18891.838
-31998	-18830.299
-31200	-18706.86
-31643	-18491.42
-32940	-18169.076
-33438	-17750.777
-32463	-17278.584
-31375	-16824.057
-31663	-16479.113
-33320	-16340.336
-33749	-16490.086
-32512	-16977.057
-31506	-17801.75
-31935	-18910.299
-34114	-20197.91
-36824	-21522.686
-38197	-22726.79
-39580	-23661.326
-41334	-24211.516
-43282	-24315.2
-36530	-23973.98
-33774	-23247.072
-32377	-22244.773
-32361	-21104.879
-33234	-19969.89
-33553	-18964.557
-32572	-18177.832
-32200	-17652.896
-32727	-17386.588
-33880	-17337.102
-34353	-17437.207
-33331	-17610.285
-32576	-17785.396
-33652	-17908.773
-34496	-17950.137
-34792	-17902.332
-33749	-17776.9
-32787	-17596.533
-33044	-17387.71
-34212	-17174.697
-34590	-16976.074
-33508	-16804.85
-32569	-16669.787
-32829	-16578.107
-33842	-16537.219
-34501	-16554.572
-33336	-16635.42
-32168	-16778.908
-32580	-16974.408
-33661	-17199.48
-33964	-17421.049
-32930	-17599.984
-32236	-17697.146
-32543	-17688.064
-33764	-17569.084
-34186	-17364.443
-33381	-17126.842
-32702	-16931.598
-32986	-16864.715
-33949	-17005.963
-34461	-17410.984
-33606	-18095.727
-32838	-19027.193
-33357	-20123.586
-35699	-21263.605
-39095	-22304.463
-41029	-23106.234
-42136	-23555.506
-44128	-23586.402
-46861	-23193.428
-39899	-22434.965
-36402	-21418.475
-35242	-20286.191
-35762	-19187.135
-36904	-18252.566
-37149	-17575.19
-35743	-17196.299
-34842	-17103.424
-35099	-17238.87
-36007	-17515.47
-36561	-17836.662
-35724	-18116.193
-35271	-18293.371
-35006	-18341.676
-35830	-18268.236
-36196	-18106.51
-34953	-17904.111
-33981	-17709.252
-34324	-17559.547
-35449	-17475.207
-35695	-17458.59
-34567	-17497.662
-34021	-17573.53
-34567	-17668.736
-36071	-17773.402
-35882	-17887.646
-34612	-18018.605
-34317	-18174.742
-35129	-18358.826
-36189	-18561.793
-36544	-18760.148
-35830	-18918.303
-35509	-18996.803
-36155	-18963.98
-37471	-18807.871
-38607	-18545.83
-42525	-18227.143
-37429	-17932.404
-36876	-17756.885
-37906	-17794.213
-37994	-18115.277
-36569	-18749.223
-35521	-19670.95
-36109	-20799.047
-37999	-22005.262
-40153	-23133.635
-40711	-24027.12
-41228	-24555.18
-45836	-24637.754
-52993	-24261.121
-42866	-23485.568
-36522	-22426.844
-34924	-21240.701
-35041	-20092.273
-35728	-19127.994
-35904	-18449.977
-34931	-18105.516
-33944	-18081.455
-34598	-18313.602
-36203	-18704.734
-36502	-19147.418
-35758	-19545.656
-34901	-19832.244
-35445	-19977.244
-36515	-19987.002
-36885	-19895.244
-35764	-19748.938
-35009	-19593.457
-35541	-19460.525
-36563	-19362.744
-37147	-19293.578
-36347	-19234.05
-35912	-19162.883
-36978	-19066.578
-37546	-18946.457
-37445	-18819.459
-36046	-18713.55
-35027	-18658.297
-35544	-18673.781
-36662	-18761.262
-36957	-18898.508
-35702	-19042.717
-34746	-19139.957
-35464	-19140.318
-36429	-19014.826
-36699	-18768.975
-35222	-18449.592
-34568	-18141.309
-35335	-17953.771
-36187	-18000.252
-36082	-18371.992
-34951	-19114.238
-34221	-20210.035
-34874	-21575.566
-36685	-23068.975
-39223	-24511.908
-38981	-25720.371
-46117	-26535.113
-49716	-26854.965
-53859	-26653.322
-43018	-25986.652
-36402	-24976.11
-35050	-23788.904
-35081	-22604.188
-35564	-21580.262
-35378	-20827.938
-34230	-20394.285
-33602	-20260.773
-35282	-20354.936
-43406	-20571.28
-37791	-20802.9
-34654	-20960.307
-33699	-20991.13
-34305	-20887.637
-35334	-20681.48
-35382	-20429.695
-34277	-20194.635
-33462	-20025.873
-34021	-19946.453
-35147	-19948.14
-35264	-19996.799
-34367	-20045.508
-34176	-20051.623
-34216	-19993.848
-34701	-19881.723
-34789	-19756.55
-33627	-19682.393
-32869	-19728.605
-33427	-19949.285
-34341	-20364.314
-34389	-20948.422
-33124	-21630.557
-32531	-22305.975
-33211	-22858.834
-34519	-23189.75
-34382	-23242.098
-33048	-23020.152
-32363	-22594.045
-32913	-22089.889
-33923	-21665.525
-34315	-21476.854
-33081	-21642.057
-32357	-22212.01
-32936	-23153.902
-35185	-24351.525
-36603	-25624.307
-44192	-26758.084
-47152	-27549.436
-48810	-27844.201
-52844	-27567.242
-41517	-26741.848
-35156	-25477.635
-33965	-23954.088
-34586	-22383.035
-35430	-20969.426
-35208	-19874.928
-33957	-19192.111
-34345	-18934.002
-38802	-19040.777
-36534	-19402.828
-35841	-19886.834
-34742	-20367.451
-34309	-20751.824
-35082	-20993.848
-36108	-21095.312
-36231	-21094.797
-35121	-21049.643
-34379	-21014.945
-34916	-21026.76
-36786	-21092.889
-42490	-21192.855
-37486	-21291.28
-35392	-21348.27
-35742	-21336.797
-36968	-21253.383
-36964	-21120.914
-35636	-20982.217
-35092	-20885.752
-35859	-20869.064
-36728	-20943.557
-36657	-21085.713
-35339	-21239.1
-34578	-21326.965
-35702	-21273.752
-36632	-21029.736
-36565	-20592.268
-35353	-20017.287
-34538	-19417.209
-35037	-18943.953
-35979	-18759.336
-36169	-18999.086
-35158	-19738.268
-34691	-20966.33
-35718	-22578.92
-36686	-24389.22
-47062	-26154.447
-49894	-27622.982
-50471	-28577.934
-51564	-28878.738
-55593	-28487.76
-44687	-27481.336
-38163	-26027.0
-36908	-24355.842
-37219	-22715.387
-37739	-21323.592
-37434	-20330.896
-36119	-19798.014
-36007	-19692.967
-36421	-19908.385
-36948	-20291.88
-36727	-20683.668
-35563	-20951.855
-34941	-21017.584
-35526	-20865.87
-36392	-20539.55
-36213	-20120.791
-34937	-19703.936
-34374	-19368.873
-35267	-19161.547
-36462	-19085.578
-36096	-19106.557
-34910	-19166.656
-34435	-19205.24
-35277	-19179.143
-36120	-19076.027
-36002	-18917.3
-34825	-18749.527
-34220	-18627.768
-35097	-18594.986
-36165	-18664.205
-36142	-18809.336
-35163	-18968.068
-34789	-19057.043
-35467	-18996.363
-36347	-18736.828
-36329	-18282.596
-35161	-17702.604
-34753	-17126.082
-35546	-16719.773
-36425	-16658.81
-36330	-17083.459
-35144	-18062.96
-34650	-19571.129
-35721	-21480.395
-37169	-23576.95
-39384	-25594.227
-40487	-27259.95
-41477	-28345.518
-44167	-28708.373
-46730	-28318.697
-38995	-27264.906
-35664	-25728.678
-34706	-23957.389
-35454	-22211.82
-36178	-20718.857
-36104	-19634.785
-35471	-19025.012
-34502	-18863.82
-35169	-19052.596
-35819	-19451.607
-35547	-19915.982
-34410	-20328.092
-33959	-20619.17
-34849	-20775.883
-35721	-20831.947
-35652	-20847.95
-34492	-20886.576
-34096	-20989.887
-35476	-21165.64
-35814	-21385.756
-35343	-21595.57
-34127	-21732.615
-33717	-21747.596
-34624	-21622.465
-35515	-21378.754
-35264	-21073.553
-34073	-20784.684
-33646	-20587.68
-34406	-20532.377
-35414	-20624.947
-35807	-20821.38
-34227	-21035.95
-33622	-21162.258
-34469	-21104.354
-35367	-20808.428
-35291	-20287.324
-34196	-19630.926
-33840	-18997.666
-34711	-18588.312
-35591	-18605.104
-35399	-19205.658
-34059	-20461.604
-34001	-22331.395
-34939	-24655.318
-36639	-27173.848
-38712	-29567.633
-39604	-31512.062
-40825	-32733.975
-43156	-33062.918
-45559	-32459.018
-38234	-31024.787
-35152	-28978.3
-34674	-26619.654
-35337	-24271.996
-36108	-22224.678
-36260	-20687.273
-34627	-19760.945
-34147	-19431.459
-34977	-19585.852
-35804	-20046.266
-35521	-20613.043
-34381	-21104.025
-33842	-21393.955
-34856	-21428.201
-35790	-21223.53
-35632	-20852.559
-34555	-20417.988
-34516	-20022.902
-35101	-19746.045
-35972	-19625.588
-35740	-19655.604
-34609	-19794.115
-34049	-19979.75
-34882	-20151.426
-35854	-20265.438
-35617	-20305.994
-34486	-20285.734
-34017	-20237.68
-35126	-20201.805
-36754	-20209.842
-36471	-20273.617
-34999	-20379.766
-34382	-20493.111
-35252	-20568.389
-35961	-20566.045
-35354	-20468.123
-33975	-20289.215
-33537	-20079.484
-34518	-19917.732
-35277	-19895.438
-34817	-20095.09
-33912	-20567.922
-33150	-21316.855
-34069	-22288.818
-35769	-23378.924
-38319	-24445.842
-39591	-25336.7
-40927	-25916.016
-43804	-26088.717
-46066	-25821.973
-38324	-25153.154
-35126	-24175.793
-34656	-23029.662
-36328	-21869.865
-37209	-20839.36
-36244	-20045.83
-35016	-19545.85
-34591	-19340.707
-35494	-19383.129
-36220	-19592.936
-35776	-19875.55
-34496	-20145.686
-33942	-20340.51
-34667	-20428.822
-35190	-20411.506
-34746	-20314.021
-33870	-20174.809
-32887	-20032.584
-35906	-19915.16
-41635	-19834.223
-35302	-19788.783
-32976	-19765.018
-32592	-19744.166
-33427	-19715.217
-34410	-19676.953
-34126	-19639.227
-32896	-19619.312
-32716	-19635.06
-34327	-19696.924
-34997	-19801.576
-34143	-19929.023
-32762	-20045.25
-32721	-20110.027
-33892	-20088.934
-35112	-19965.5
-34979	-19750.326
-33766	-19485.072
-33247	-19238.479
-34251	-19095.287
-35345	-19139.508
-35255	-19435.342
-33666	-20010.271
-33233	-20843.725
-34299	-21865.65
-35804	-22964.596
-37315	-24004.264
-38414	-24848.04
-40072	-25378.557
-42560	-25523.172
-44889	-25265.918
-37272	-24651.693
-34010	-23770.975
-33639	-22750.533
-34230	-21726.52
-35134	-20820.807
-34865	-20123.086
-33631	-19679.354
-33194	-19489.455
-34347	-19513.752
-35032	-19686.33
-34629	-19931.424
-33756	-20179.295
-33632	-20378.102
-35652	-20500.152
-43196	-20540.564
-37046	-20516.572
-34626	-20452.684
-33974	-20374.309
-34976	-20300.662
-35762	-20241.611
-35281	-20198.332
-33850	-20167.088
-33323	-20144.61
-34482	-20132.348
-35331	-20138.475
-34900	-20175.828
-33786	-20256.98
-33917	-20387.408
-34593	-20559.824
-35118	-20750.648
-34747	-20920.975
-33670	-21023.055
-33423	-21010.803
-34417	-20852.707
-34999	-20543.666
-34499	-20112.182
-33482	-19621.305
-33202	-19161.332
-34573	-18835.807
-35856	-18742.412
-35170	-18952.988
-33977	-19496.174
-33651	-20347.582
-34940	-21429.68
-36689	-22621.682
-38488	-23777.857
-39881	-24751.777
-41611	-25420.342
-44325	-25704.627
-46228	-25582.643
-38161	-25092.576
-35318	-24318.74
-34222	-23380.797
-35114	-22407.477
-35512	-21515.602
-35100	-20792.11
-33849	-20283.996
-33464	-19996.508
-34550	-19899.582
-35290	-19941.05
-34584	-20060.928
-33647	-20205.05
-33891	-20334.646
-35227	-20430.295
-35521	-20489.873
-34821	-20521.314
-33676	-20534.363
-33579	-20532.877
-34780	-20511.012
-35487	-20453.982
-35033	-20342.385
-33789	-20160.82
-33401	-19905.63
-34463	-19590.775
-36014	-19249.049
-40346	-18926.828
-35304	-18678.08
-33942	-18547.902
-34987	-18561.992
-35721	-18718.057
-35061	-18982.932
-33794	-19297.436
-33521	-19588.176
-34641	-19784.957
-35437	-19838.447
-34938	-19734.52
-34760	-19501.605
-38532	-19208.346
-36241	-18954.855
-35829	-18849.5
-34899	-18986.56
-33666	-19422.988
-33571	-20161.697
-34857	-21145.156
-36732	-22260.504
-38842	-23356.844
-40005	-24271.506
-41372	-24859.064
-43715	-25019.322
-45939	-24716.932
-38484	-23991.252
-34909	-22945.557
-34117	-21734.36
-34937	-20533.055
-35451	-19508.258
-34687	-18790.262
-33613	-18452.84
-33401	-18504.055
-34294	-18890.32
-35082	-19510.201
-34628	-20236.193
-33806	-20938.969
-33811	-21509.643
-34088	-21875.914
-34562	-22008.809
-34142	-21920.695
-33274	-21656.004
-33149	-21277.37
-33877	-20851.318
-34103	-20435.85
-33319	-20072.887
-32555	-19785.746
-32532	-19581.84
-33952	-19457.807
-35202	-19405.375
-34556	-19415.453
-33356	-19479.232
-33230	-19586.803
-34269	-19724.455
-35000	-19871.729
-34517	-20000.52
-33524	-20077.445
-33398	-20070.635
-34595	-19958.83
-35253	-19740.92
-34529	-19442.754
-33494	-19119.23
-32994	-18849.715
-33892	-18726.176
-34278	-18836.04
-33499	-19242.412
-32372	-19966.541
-32286	-20976.555
-33612	-22185.424
-35092	-23460.463
-37030	-24641.934
-38461	-25569.568
-37521	-26110.965
-45176	-26183.752
-51271	-25774.846
-40066	-24945.994
-34222	-23816.336
-33636	-22546.951
-34338	-21309.262
-34753	-20255.248
-33949	-19492.02
-32791	-19066.467
-32917	-18962.297
-33945	-19109.53
-34540	-19404.352
-33857	-19733.973
-32886	-20001.44
-32277	-20144.852
-33406	-20146.697
-34011	-20032.617
-33123	-19859.512
-31683	-19697.486
-31285	-19609.959
-32242	-19636.81
-32849	-19785.803
-32227	-20031.26
-31101	-20320.742
-31136	-20594.572
-32824	-20798.188
-33330	-20897.373
-32374	-20886.355
-31452	-20787.42
-31576	-20643.379
-32888	-20504.48
-33693	-20413.355
-33208	-20392.094
-32386	-20436.543
-32557	-20517.873
-33659	-20592.525
-34427	-20616.873
-34121	-20563.588
-32982	-20434.322
-32882	-20265.398
-34036	-20123.945
-34672	-20094.697
-34159	-20259.717
-33187	-20676.154
-33041	-21357.48
-34206	-22263.016
-35521	-23298.508
-37341	-24328.59
-36920	-25200.809
-44278	-25771.3
-48326	-25936.705
-52371	-25653.377
-40866	-24951.182
-34777	-23922.07
-34090	-22708.988
-34822	-21476.53
-35244	-20380.729
-34494	-19541.934
-33582	-19025.111
-33552	-18832.705
-34579	-18910.453
-35517	-19163.945
-34889	-19482.012
-33346	-19761.662
-33125	-19928.035
-34249	-19946.688
-34773	-19825.322
-33959	-19605.707
-33054	-19345.176
-33182	-19105.465
-34346	-18932.867
-34811	-18849.625
-33915	-18852.182
-33092	-18916.982
-33671	-19011.61
-34534	-19107.521
-34682	-19189.754
-33801	-19260.68
-33000	-19337.533
-33014	-19443.893
-33984	-19597.863
-34420	-19800.47
-33603	-20028.91
-32538	-20237.04
-32662	-20363.96
-33828	-20350.082
-34633	-20155.678
-33698	-19777.984
-32624	-19261.277
-32472	-18696.723
-33457	-18210.42
-34085	-17941.152
-33292	-18011.525
-32338	-18499.064
-32215	-19414.443
-33292	-20690.943
-34649	-22189.557
-34765	-23719.01
-42582	-25065.596
-45797	-26034.762
-47681	-26484.617
-51603	-26351.557
-39786	-25665.873
-33907	-24537.78
-33153	-23141.807
-34129	-21679.936
-34599	-20345.457
-33581	-19289.023
-32587	-18595.506
-32861	-18275.041
-34616	-18269.967
-34676	-18474.982
-33748	-18763.816
-32784	-19018.258
-32971	-19151.965
-34133	-19124.152
-34596	-18941.293
-33731	-18647.518
-32842	-18307.598
-32909	-17987.26
-33984	-17736.293
-34432	-17578.57
-34135	-17510.502
-33386	-17508.242
-32972	-17540.26
-33857	-17580.678
-34324	-17619.807
-33517	-17667.598
-32614	-17749.91
-32447	-17895.771
-33485	-18127.723
-34217	-18446.041
-33558	-18821.652
-32712	-19197.723
-33079	-19500.68
-34541	-19658.72
-34570	-19623.605
-33516	-19389.227
-32642	-19002.738
-32610	-18564.107
-33416	-18211.785
-33845	-18095.344
-33264	-18346.596
-32246	-19045.434
-32054	-20196.135
-32952	-21717.332
-33284	-23449.213
-42362	-25174.625
-45046	-26660.328
-46157	-27695.855
-48081	-28132.717
-51471	-27911.69
-39482	-27077.254
-33536	-25761.174
-32779	-24162.914
-33526	-22509.184
-33606	-21013.363
-32555	-19839.219
-31627	-19076.793
-32113	-18734.64
-32625	-18748.947
-32763	-19005.72
-31726	-19370.994
-30803	-19721.129
-31039	-19967.164
-32259	-20067.844
-32762	-20029.41
-31738	-19894.342
-30619	-19721.928
-30803	-19567.977
-32109	-19468.674
-32970	-19432.486
-31858	-19441.736
-30702	-19462.215
-30804	-19458.016
-32202	-19406.04
-32589	-19306.19
-31612	-19182.588
-30686	-19076.227
-30868	-19031.291
-31976	-19078.334
-32441	-19219.977
-32601	-19423.662
-34607	-19624.97
-32574	-19743.803
-33232	-19704.102
-33873	-19459.6
-33139	-19014.057
-32276	-18431.832
-32599	-17834.12
-33721	-17380.477
-34265	-17238.172
-33464	-17545.176
-32560	-18375.58
-32634	-19715.277
-33751	-21454.012
-35282	-23397.021
-36657	-25294.418
-38067	-26884.129
-40282	-27938.23
-42494	-28304.834
-44311	-27937.61
-36134	-26902.398
-33362	-25360.111
-33257	-23543.629
-34190	-21709.174
-34578	-20090.592
-33896	-18861.648
-33363	-18111.482
-33176	-17838.918
-34455	-17964.117
-35026	-18354.934
-33943	-18860.348
-32999	-19342.982
-33246	-19704.418
-34438	-19897.799
-34981	-19927.078
-33932	-19833.693
-33114	-19676.805
-33518	-19512.887
-35041	-19379.863
-34812	-19290.254
-33606	-19232.688
-32711	-19182.537
-32807	-19116.004
-33754	-19023.336
-34207	-18916.018
-33124	-18825.412
-32032	-18793.434
-32057	-18857.344
-33132	-19033.348
-33508	-19304.518
-33062	-19617.361
-31741	-19890.062
-31582	-20030.66
-32577	-19962.213
-32980	-19648.666
-32366	-19114.05
-31584	-18449.688
-31782	-17805.312
-32694	-17365.232
-33241	-17312.121
-32254	-17786.553
-31277	-18850.842
-31662	-20465.826
-32706	-22486.617
-34145	-24679.242
-35386	-26756.25
-36984	-28424.986
-39676	-29438.617
-41791	-29642.457
-43604	-28998.584
-35424	-27597.578
-32412	-25634.516
-32352	-23380.816
-33914	-21130.701
-40019	-19149.545
-34291	-17636.404
-31844	-16692.014
-31731	-16313.75
-32474	-16408.545
-32812	-16821.445
-31766	-17372.84
-30773	-17895.91
-30977	-18266.809
-32056	-18422.127
-32491	-18360.668
-31407	-18131.7
-30719	-17813.898
-31551	-17491.615
-32249	-17233.824
-32366	-17080.414
-31201	-17038.52
-30417	-17088.158
-30772	-17194.83
-31901	-17323.932
-32314	-17452.6
-31387	-17576.133
-30680	-17706.53
-31283	-17864.953
-32523	-18070.326
-33472	-18328.148
-32177	-18623.61
-31099	-18920.818
-31259	-19170.229
-32353	-19321.988
-32681	-19341.863
-31553	-19225.256
-30868	-19004.951
-31406	-18750.574
-32611	-18557.748
-32850	-18529.31
-31752	-18751.92
-31345	-19273.799
-31474	-20089.535
-32624	-21134.371
-34329	-22291.318
-35897	-23409.5
-37187	-24330.814
-39263	-24920.203
-42125	-25088.072
-43514	-24811.066
-35256	-24137.87
-32671	-23172.822
-33185	-22064.217
-35144	-20971.678
-34595	-20038.312
-33416	-19366.764
-32797	-19004.883
-33266	-18943.15
-34281	-19122.852
-34543	-19453.281
-33417	-19833.064
-32726	-20171.555
-33201	-20404.96
-34409	-20504.61
-35370	-20476.176
-37052	-20351.055
-33864	-20175.137
-33309	-19992.703
-34317	-19835.73
-34665	-19717.867
-33825	-19634.088
-32943	-19566.234
-33248	-19491.72
-34378	-19392.803
-34599	-19263.736
-33337	-19112.736
-32354	-18959.156
-32656	-18826.998
-34381	-18736.055
-34412	-18694.588
-33054	-18694.283
-32260	-18710.484
-32623	-18708.764
-33476	-18655.057
-33881	-18527.16
-32794	-18325.021
-32074	-18076.432
-32562	-17836.172
-33568	-17677.914
-34023	-17680.383
-33021	-17910.191
-31786	-18405.203
-32113	-19162.232
-33255	-20132.389
-34413	-21225.146
-35750	-22320.287
-37623	-23288.275
-40159	-24007.928
-42514	-24390.742
-43934	-24394.432
-35200	-24030.773
-32376	-23355.266
-32704	-22464.057
-33514	-21471.354
-33636	-20489.904
-32306	-19614.008
-31479	-18907.12
-31864	-18396.594
-32809	-18075.516
-33027	-17910.549
-31797	-17853.889
-30964	-17855.146
-31424	-17871.922
-32630	-17876.18
-33207	-17855.848
-31776	-17812.307
-30927	-17754.688
-31324	-17694.229
-32402	-17639.559
-32710	-17594.309
-31543	-17557.686
-30822	-17526.988
-31359	-17501.88
-32306	-17487.12
-32781	-17493.117
-31756	-17533.72
-31287	-17621.406
-31975	-17761.658
-32732	-17947.63
-32669	-18157.33
-31751	-18354.748
-30916	-18496.188
-31314	-18539.992
-32363	-18457.312
-32522	-18245.361
-31514	-17932.244
-30926	-17577.709
-31320	-17266.816
-32226	-17096.393
-32730	-17156.645
-31138	-17512.113
-30406	-18184.72
-30877	-19144.742
-32010	-20310.312
-33152	-21557.238
-34571	-22737.418
-36326	-23702.963
-38536	-24331.52
-40946	-24547.549
-42093	-24335.54
-34142	-23744.285
-31908	-22872.658
-31858	-21857.707
-32559	-20846.598
-32635	-19972.516
-31576	-19334.152
-30564	-18982.414
-31082	-18916.932
-32138	-19092.215
-32418	-19431.828
-31579	-19845.688
-30849	-20248.447
-31458	-20574.13
-32931	-20784.486
-32856	-20870.525
-31842	-20846.979
-31157	-20743.027
-31577	-20592.244
-32657	-20423.244
-32770	-20254.746
-31651	-20094.145
-30909	-19941.273
-31581	-19793.506
-32548	-19651.504
-32794	-19522.426
-32149	-19419.871
-30868	-19360.229
-31151	-19356.236
-32217	-19410.254
-31974	-19509.422
-29926	-19624.555
-28337	-19714.062
-29963	-19732.562
-31427	-19644.387
-29991	-19435.7
-29841	-19122.299
-31615	-18753.43
-31607	-18408.18
-31889	-18181.98
-32611	-18168.223
-32056	-18437.934
-32055	-19020.877
-32392	-19894.188
-32969	-20979.947
-33532	-22153.441
-34757	-23261.852
-37219	-24149.498
-39606	-24685.586
-40560	-24787.812
-45800	-24435.79
-36409	-23680.158
-31937	-22625.94
-31618	-21419.072
-32518	-20217.033
-32807	-19162.068
-31499	-18359.053
-30699	-17857.71
-31096	-17654.83
-31890	-17697.957
-31986	-17901.965
-30797	-18170.012
-30519	-18414.084
-31873	-18571.781
-32465	-18615.291
-32167	-18551.01
-31002	-18411.73
-30582	-18243.582
-31379	-18092.307
-32386	-17991.297
-32342	-17954.455
-31108	-17975.93
-30546	-18034.879
-31256	-18104.883
-32356	-18163.32
-32924	-18198.805
-31496	-18214.201
-30717	-18223.793
-31249	-18246.846
-32000	-18298.547
-31911	-18381.625
-30897	-18481.568
-30164	-18567.45
-30907	-18599.379
-31942	-18540.041
-31766	-18368.154
-30604	-18089.736
-30428	-17744.137
-31008	-17402.729
-31947	-17158.205
-31689	-17107.09
-30226	-17328.266
-29741	-17862.42
-30566	-18698.027
-31641	-19765.97
-32784	-20946.424
-33929	-22086.35
-35522	-23025.172
-36050	-23624.03
-42773	-23789.977
-47811	-23496.006
-36494	-22789.203
-31871	-21775.455
-32075	-20605.896
-32533	-19446.375
-32408	-18447.867
-31311	-17720.926
-30622	-17319.85
-31275	-17237.592
-32182	-17413.543
-31909	-17751.396
-30986	-18142.219
-30843	-18488.166
-31154	-18721.713
-32038	-18815.322
-32117	-18781.537
-30856	-18663.47
-30226	-18518.986
-31088	-18402.139
-32027	-18350.543
-31977	-18374.555
-30696	-18456.39
-30132	-18556.941
-31242	-18628.242
-32618	-18627.918
-32256	-18531.508
-30955	-18338.82
-30363	-18073.906
-31203	-17778.496
-32112	-17500.578
-31979	-17281.404
-30909	-17144.535
-30389	-17091.191
-31334	-17102.12
-32319	-17145.936
-32234	-17191.715
-31269	-17222.262
-30538	-17244.088
-31356	-17291.041
-32317	-17419.822
-32341	-17697.11
-30936	-18182.094
-30259	-18906.877
-31099	-19861.87
-32083	-20988.535
-32778	-22181.95
-33962	-23304.594
-34204	-24209.314
-41792	-24763.707
-45191	-24878.816
-48125	-24525.34
-36904	-23744.934
-32140	-22637.377
-32259	-21349.62
-32767	-20046.674
-32283	-18883.219
-31007	-17978.344
-30395	-17397.668
-31136	-17147.27
-32601	-17179.14
-37155	-17405.916
-31751	-17726.262
-30122	-18043.047
-30841	-18284.143
-31682	-18413.12
-31393	-18430.336
-30272	-18365.186
-29998	-18262.332
-30980	-18166.814
-31841	-18110.553
-31451	-18104.604
-31130	-18138.186
-37088	-18183.861
-33274	-18213.143
-32606	-18202.705
-31878	-18145.312
-30547	-18052.766
-29977	-17952.36
-30762	-17878.215
-31653	-17858.92
-31526	-17906.037
-30291	-18006.938
-29692	-18124.547
-30482	-18205.217
-31572	-18193.514
-31619	-18049.621
-30211	-17765.586
-29586	-17375.156
-30454	-16954.732
-31477	-16612.896
-31083	-16470.518
-29772	-16634.7
-29314	-17172.283
-30319	-18090.258
-31511	-19326.041
-32461	-20751.701
-32289	-22192.664
-40052	-23454.406
-43739	-24360.463
-45414	-24782.762
-48216	-24664.678
-36545	-24035.115
-31753	-22995.334
-31960	-21705.008
-32407	-20348.992
-32139	-19104.203
-30869	-18109.645
-30154	-17445.676
-31172	-17126.303
-32451	-17105.605
-31587	-17295.244
-30237	-17587.977
-29706	-17882.691
-30698	-18104.479
-31512	-18216.11
-31339	-18218.312
-30019	-18140.943
-29421	-18028.48
-30461	-17923.783
-31329	-17855.457
-31793	-17830.893
-33242	-17837.191
-30636	-17850.703
-30848	-17846.691
-31539	-17811.557
-31249	-17749.799
-30017	-17684.504
-29467	-17650.617
-30342	-17682.877
-31347	-17802.67
-31005	-18006.168
-29671	-18259.467
-29984	-18502.467
-32497	-18662.281
-31931	-18673.621
-31130	-18497.55
-30056	-18139.32
-29540	-17657.336
-30414	-17157.812
-31272	-16777.756
-30982	-16659.41
-29774	-16918.31
-29343	-17613.8
-30446	-18730.023
-31731	-20170.814
-31572	-21771.47
-40016	-23322.605
-42520	-24611.367
-44210	-25457.5
-45397	-25747.006
-48113	-25452.43
-36477	-24641.24
-31451	-23451.273
-31812	-22070.828
-32183	-20698.102
-31694	-19503.883
-30377	-18603.35
-29932	-18040.994
-31159	-17792.006
-31552	-17778.467
-31184	-17894.86
-29962	-18037.398
-29371	-18129.18
-30289	-18136.006
-31112	-18068.863
-30857	-17973.398
-29701	-17911.195
-29146	-17936.553
-30096	-18077.082
-31177	-18322.719
-31342	-18626.037
-29659	-18914.352
-29125	-19108.97
-30244	-19147.88
-31030	-19004.355
-30713	-18696.037
-29539	-18282.227
-29128	-17849.143
-30356	-17487.812
-31454	-17269.08
-31117	-17223.154
-29867	-17329.383
-29864	-17519.795
-30762	-17696.703
-31488	-17759.822
-31041	-17636.264
-29806	-17306.232
-29279	-16817.367
-30325	-16282.558
-31194	-15861.13
-30751	-15726.17
-29671	-16024.851
-29221	-16841.07
-30543	-18169.045
-31939	-19904.176
-32160	-21854.611
-33118	-23771.1
-34924	-25390.676
-37561	-26484.168
-39129	-26898.39
-39974	-26584.416
-32201	-25604.596
-30028	-24114.768
-30709	-22340.57
-31381	-20529.395
-30971	-18906.139
-29946	-17637.387
-29961	-16808.846
-30655	-16421.543
-31496	-16404.441
-31174	-16640.111
-29868	-16996.182
-29383	-17355.184
-30515	-17636.027
-31407	-17803.338
-30931	-17864.102
-29718	-17853.525
-29311	-17816.217
-30595	-17788.375
-31892	-17785.787
-31001	-17800.723
-29536	-17807.57
-29166	-17775.418
-30102	-17683.074
-30856	-17530.785
-30492	-17344.568
-29310	-17171.623
-28892	-17067.67
-29879	-17079.025
-30598	-17225.203
-30367	-17486.871
-29871	-17804.389
-29017	-18088.494
-29803	-18240.979
-30473	-18182.135
-30156	-17876.854
-29149	-17353.758
-28751	-16710.588
-29980	-16103.182
-30924	-15719.199
-30436	-15740.24
-29182	-16300.91
-29024	-17453.477
-30637	-19146.965
-31349	-21225.8
-31866	-23448.682
-33129	-25526.604
-35197	-27172.266
-38334	-28150.271
-40151	-28321.393
-40861	-27664.203
-32570	-26283.17
-30401	-24382.057
-30903	-22233.61
-31491	-20125.547
-31362	-18311.377
-30337	-16970.87
-29615	-16186.399
-30606	-15938.809
-31336	-16123.511
-30825	-16580.588
-29364	-17132.857
-29027	-17620.184
-30206	-17932.357
-31044	-18020.762
-30638	-17897.982
-29359	-17624.475
-29230	-17286.076
-30790	-16969.646
-31129	-16742.318
-30498	-16638.137
-29412	-16655.691
-29061	-16765.086
-30286	-16921.686
-31016	-17078.715
-30391	-17205.51
-29167	-17290.574
-28938	-17341.492
-30206	-17378.312
-31364	-17422.855
-31297	-17487.688
-29521	-17569.14
-28870	-17645.611
-30080	-17683.701
-30934	-17649.805
-30444	-17523.281
-29271	-17308.402
-28927	-17040.717
-30044	-16785.543
-30839	-16627.604
-30089	-16653.568
-28999	-16931.312
-29257	-17491.05
-30004	-18313.287
-30864	-19325.508
-31199	-20410.635
-32210	-21425.408
-34136	-22225.523
-36991	-22693.354
-38667	-22757.41
-39506	-22408.66
-31746	-21703.92
-29818	-20748.406
-30801	-19683.504
-31734	-18655.787
-30433	-17791.482
-29166	-17176.344
-28845	-16844.63
-30061	-16778.74
-30739	-16919.35
-30136	-17181.984
-29142	-17476.926
-28907	-17728.334
-29883	-17886.992
-30565	-17935.691
-30279	-17886.207
-29846	-17770.283
-29706	-17627.285
-30264	-17492.26
-30863	-17386.816
-30459	-17315.654
-29569	-17268.977
-29246	-17229.229
-30261	-17178.775
-30936	-17109.938
-30455	-17027.31
-29393	-16947.312
-29251	-16892.861
-30647	-16884.959
-31917	-16934.041
-30882	-17033.54
-29403	-17157.773
-29097	-17266.525
-30180	-17315.246
-30892	-17267.96
-30256	-17109.832
-29202	-16857.914
-28994	-16563.086
-30055	-16304.552
-30692	-16176.895
-30337	-16270.53
-29534	-16651.135
-28949	-17341.852
-29970	-18312.312
-30735	-19478.336
-30885	-20711.598
-32305	-21859.1
-34160	-22770.625
-36597	-23321.006
-38598	-23436.498
-38726	-23106.857
-31344	-22388.22
-29708	-21386.525
-30877	-20245.734
-30944	-19117.545
-30095	-18135.201
-28970	-17393.764
-28770	-16937.82
-29699	-16759.934
-30225	-16808.936
-29507	-17005.232
-28542	-17260.434
-28546	-17495.707
-29839	-17655.92
-30596	-17716.633
-30569	-17682.736
-29294	-17581.469
-28815	-17450.684
-29786	-17326.979
-30366	-17236.438
-30055	-17189.275
-28902	-17180.467
-28363	-17194.574
-29529	-17213.617
-30264	-17224.549
-29852	-17223.85
-29864	-17218.564
-35501	-17222.006
-31932	-17251.506
-31284	-17315.895
-30463	-17411.08
-29253	-17517.389
-28952	-17602.373
-30027	-17628.326
-30726	-17563.332
-29839	-17392.936
-28815	-17129.104
-28830	-16813.967
-30935	-16516.36
-36465	-16320.397
-31116	-16312.632
-28883	-16558.541
-28506	-17087.748
-29500	-17882.525
-30352	-18875.168
-30753	-19954.912
-32037	-20984.348
-33748	-21822.764
-36270	-22350.092
-38221	-22488.826
-38579	-22218.002
-31237	-21579.002
-30007	-20663.195
-30479	-19600.898
-31009	-18534.467
-30113	-17594.506
-28954	-16879.047
-28919	-16439.86
-30121	-16278.593
-30812	-16352.297
-30065	-16587.223
-28966	-16896.445
-28881	-17198.432
-30199	-17432.086
-31125	-17565.555
-29820	-17597.154
-28708	-17549.371
-28698	-17458.72
-29733	-17363.96
-30144	-17295.625
-29412	-17269.24
-28311	-17283.953
-28071	-17326.494
-29379	-17377.82
-29839	-17420.959
-29036	-17446.98
-28624	-17457.28
-28369	-17462.65
-29232	-17477.652
-29694	-17513.816
-28901	-17572.475
-27669	-17641.303
-27655	-17694.941
-29104	-17700.652
-29928	-17628.803
-29339	-17463.297
-28208	-17211.395
-28158	-16908.686
-29729	-16617.57
-30206	-16418.805
-29437	-16395.793
-28608	-16616.09
-28823	-17113.941
-30029	-17877.422
-30507	-18843.914
-30611	-19904.979
-31811	-20922.197
-34287	-21749.947
-37359	-22261.246
-37026	-22372.262
-42711	-22056.139
-33276	-21355.598
-29623	-20368.299
-30272	-19235.512
-30593	-18113.664
-29429	-17146.99
-28009	-16442.957
-27811	-16055.206
-28946	-15977.954
-29371	-16152.385
-28372	-16482.227
-27376	-16856.293
-27587	-17172.566
-29108	-17358.684
-29132	-17384.457
-28178	-17263.734
-27103	-17046.947
-27322	-16806.19
-28625	-16616.564
-29264	-16538.287
-28534	-16602.95
-27874	-16808.475
-27989	-17121.502
-29059	-17487.252
-29673	-17843.605
-29176	-18135.252
-27924	-18325.408
-28079	-18401.63
-29317	-18375.363
-29849	-18275.639
-28953	-18138.688
-27768	-17997.305
-27816	-17872.701
-29182	-17771.39
-29757	-17687.182
-28619	-17607.295
-27567	-17521.352
-28031	-17430.1
-29024	-17351.139
-29477	-17318.527
-28500	-17376.674
-27379	-17569.365
-27392	-17926.871
-28465	-18453.82
-29157	-19121.46
-29087	-19867.143
-30404	-20600.945
-32661	-21220.443
-33615	-21629.35
-39679	-21754.367
-43880	-21562.494
-32951	-21071.883
-29194	-20342.66
-29757	-19472.771
-29818	-18577.557
-28719	-17768.936
-27714	-17136.059
-27892	-16731.36
-29229	-16563.639
-29822	-16600.756
-29120	-16779.746
-28805	-17022.426
-28637	-17253.148
-29322	-17413.365
-29737	-17471.201
-28606	-17423.715
-27659	-17292.19
-27833	-17112.684
-28764	-16924.43
-29148	-16759.166
-27962	-16634.37
-27134	-16550.908
-27394	-16496.877
-28697	-16454.545
-29545	-16408.803
-27872	-16353.744
-26706	-16295.021
-26976	-16248.27
-28333	-16233.427
-28947	-16266.438
-28022	-16351.334
-27047	-16475.053
-27439	-16608.45
-28808	-16712.367
-29451	-16748.467
-28596	-16691.943
-28072	-16542.99
-28246	-16333.847
-29328	-16127.877
-29792	-16010.569
-28796	-16072.871
-27759	-16390.684
-28001	-17004.727
-29089	-17905.643
-29641	-19028.39
-29569	-20256.943
-31052	-21440.496
-32078	-22419.16
-39599	-23049.611
-42592	-23234.805
-43987	-22940.385
-32852	-22204.76
-29046	-21126.365
-29631	-19850.818
-29894	-18542.076
-28659	-17353.574
-27400	-16403.465
-27767	-15757.27
-28860	-15422.541
-29154	-15355.092
-28459	-15474.598
-27454	-15686.135
-27996	-15902.056
-29318	-16059.508
-29819	-16129.955
-28777	-16118.909
-27929	-16057.569
-28448	-15988.73
-30122	-15952.215
-30713	-15972.636
-29583	-16052.626
-28949	-16173.65
-30009	-16303.415
-31406	-16407.912
-31341	-16463.182
-29993	-16463.012
-29029	-16421.453
-29344	-16368.759
-30621	-16341.662
-31234	-16368.011
-29894	-16460.012
-28719	-16603.227
-28875	-16757.674
-29957	-16866.775
-30524	-16872.64
-29748	-16733.977
-28369	-16442.562
-28429	-16033.335
-29582	-15584.464
-30077	-15206.734
-28766	-15023.025
-27709	-15139.636
-28240	-15624.962
-29501	-16486.047
-30097	-17660.277
-30022	-19020.2
-30221	-20392.54
-38601	-21585.9
-41917	-22428.545
-43413	-22798.193
-45793	-22644.463
-34792	-22001.955
-30803	-20976.648
-31447	-19730.455
-31532	-18447.63
-30297	-17301.389
-29361	-16423.734
-29531	-15885.513
-31007	-15689.595
-31878	-15778.237
-30229	-16051.905
-29047	-16394.22
-29131	-16698.314
-30274	-16887.59
-30779	-16927.242
-29452	-16824.555
-28553	-16618.93
-29104	-16366.516
-30282	-16122.241
-30544	-15925.212
-29415	-15790.511
-28981	-15709.434
-28872	-15657.497
-29929	-15606.513
-30201	-15537.428
-28892	-15448.946
-28076	-15359.895
-28624	-15304.209
-29890	-15319.462
-30196	-15433.161
-28881	-15649.628
-28051	-15942.814
-29312	-16258.009
-34880	-16522.166
-31763	-16665.037
-29605	-16636.127
-28474	-16424.691
-28927	-16070.608
-30096	-15663.877
-30487	-15331.1045
-29389	-15210.992
-28312	-15424.36
-28823	-16044.291
-30081	-17073.988
-30482	-18437.375
-29218	-19985.842
-37782	-21517.945
-40897	-22818.283
-42565	-23693.434
-43641	-24007.902
-45698	-23708.96
-34228	-22841.88
-30429	-21530.463
-30923	-19963.299
-30761	-18354.504
-29289	-16905.29
-28135	-15771.199
-28753	-15039.855
-30255	-14723.742
-30029	-14768.204
-28752	-15071.101
-27932	-15510.134
-28511	-15970.616
-29865	-16367.358
-30174	-16656.502
-28946	-16835.357
-28066	-16932.72
-28488	-16992.465
-29697	-17056.11
-30091	-17148.963
-29335	-17273.268
-28157	-17410.14
-28327	-17528.473
-29389	-17597.762
-29606	-17600.64
-28242	-17540.525
-27380	-17441.822
-27927	-17343.0
-29131	-17284.041
-29361	-17291.434
-28063	-17366.107
-27127	-17478.133
-27970	-17571.102
-28856	-17576.117
-29128	-17431.494
-27876	-17104.367
-26961	-16608.137
-27464	-16010.547
-28727	-15428.933
-29017	-15011.823
-27839	-14910.728
-27102	-15246.612
-27735	-16079.786
-29007	-17389.365
-29648	-19067.578
-29006	-20931.645
-30384	-22750.969
-33299	-24286.412
-35961	-25331.85
-37101	-25750.63
-36897	-25500.428
-29659	-24638.752
-28622	-23306.725
-29457	-21709.037
-29596	-20070.303
-28253	-18595.871
-27687	-17439.203
-28601	-16681.604
-29172	-16327.672
-29364	-16315.264
-28134	-16537.8
-27264	-16871.918
-27825	-17204.656
-29076	-17453.637
-29432	-17577.334
-28287	-17573.705
-27417	-17469.463
-28160	-17305.209
-29703	-17120.047
-30305	-16940.672
-28587	-16777.51
-27769	-16627.314
-28425	-16482.271
-29629	-16340.305
-29976	-16212.932
-28732	-16127.458
-27937	-16121.462
-28406	-16232.234
-29476	-16481.752
-29667	-16863.201
-28680	-17333.41
-28397	-17814.537
-28482	-18207.2
-29404	-18411.348
-29674	-18352.234
-28469	-18004.55
-27652	-17408.424
-28324	-16672.525
-29534	-15961.236
-29761	-15467.39
-28492	-15374.949
-27747	-15818.932
-28454	-16852.064
-29796	-18424.979
-29759	-20385.443
-29363	-22497.562
-31017	-24478.688
-33857	-26047.967
-36951	-26974.969
-38430	-27122.4
-37764	-26467.768
-30562	-25110.533
-29204	-23247.92
-29701	-21145.041
-30682	-19082.436
-32578	-17308.23
-28793	-16001.387
-28568	-15245.414
-29626	-15025.152
-29816	-15240.878
-28395	-15737.206
-27606	-16339.143
-28295	-16888.027
-29581	-17269.758
-29779	-17429.764
-28436	-17373.441
-28675	-17153.383
-33934	-16848.09
-31264	-16541.64
-30219	-16299.056
-28531	-16154.936
-27634	-16110.072
-28199	-16137.88
-29271	-16196.875
-29363	-16245.364
-28160	-16254.178
-27563	-16213.974
-28302	-16135.357
-29377	-16042.522
-29757	-15962.6455
-28836	-15914.955
-27596	-15902.627
-28050	-15910.85
-29235	-15911.154
-29217	-15871.503
-27719	-15768.99
-26996	-15601.167
-27650	-15393.741
-28769	-15200.469
-28734	-15094.732
-27568	-15154.183
-27089	-15441.872
-27951	-15988.832
-28689	-16781.459
-28764	-17757.137
-28627	-18810.49
-30369	-19809.127
-33115	-20616.803
-35749	-21118.826
-37017	-21240.566
-36832	-20964.965
-29608	-20336.67
-28734	-19447.797
-29333	-18428.459
-29609	-17417.951
-27982	-16540.803
-27261	-15886.974
-27910	-15500.1455
-28866	-15375.171
-28837	-15465.45
-27420	-15697.116
-26768	-15986.989
-27590	-16261.059
-28587	-16467.525
-28549	-16583.398
-27414	-16613.477
-27016	-16583.084
-27537	-16527.72
-28560	-16481.111
-28638	-16465.992
-27602	-16489.314
-27121	-16542.652
-27582	-16607.64
-28571	-16663.215
-28724	-16693.812
-27450	-16694.352
-26704	-16671.729
-28157	-16642.162
-30767	-16624.996
-29386	-16635.955
-27422	-16679.148
-26654	-16743.91
-27572	-16806.338
-28581	-16835.295
-28545	-16801.959
-27207	-16688.469
-26486	-16500.51
-27204	-16269.542
-28281	-16051.365
-28215	-15918.126
-27167	-15944.643
-26896	-16192.112
-27386	-16693.104
-28237	-17440.229
-28206	-18381.834
-27947	-19426.025
-29477	-20453.01
-32166	-21335.457
-34687	-21955.496
-35971	-22228.7
-35300	-22117.812
-28563	-21640.047
-28172	-20858.766
-29269	-19880.242
-28485	-18830.998
-26996	-17837.217
-26551	-17006.604
-27583	-16414.004
-28571	-16093.623
-28516	-16038.15
-27172	-16205.013
-26624	-16527.602
-27539	-16928.83
-28704	-17334.023
-28742	-17681.186
-27686	-17927.04
-26721	-18049.145
-27534	-18044.18
-28528	-17924.232
-28565	-17711.809
-27333	-17435.408
-26656	-17125.934
-27513	-16814.688
-28534	-16532.07
-28486	-16305.71
-27187	-16158.075
-26539	-16103.382
-27958	-16144.3125
-28691	-16269.657
-28315	-16452.604
-27046	-16652.45
-26654	-16819.574
-27594	-16904.12
-28483	-16866.264
-28251	-16686.309
-26916	-16372.92
-26654	-15966.075
-27708	-15535.013
-28790	-15168.97
-28977	-14962.427
-27571	-14997.468
-26707	-15326.247
-27684	-15957.808
-28496	-16851.715
-28660	-17920.26
-28449	-19039.521
-30095	-20068.13
-33309	-20870.586
-35854	-21339.7
-36751	-21414.57
-35877	-21091.06
-29247	-20423.05
-29003	-19508.342
-29172	-18476.164
-28649	-17460.617
-27364	-16579.148
-26772	-15914.792
-27809	-15505.954
-28719	-15345.067
-28376	-15385.723
-27045	-15556.792
-26594	-15779.0625
-27356	-15982.349
-28533	-16117.849
-28727	-16164.533
-26802	-16128.79
-26195	-16037.227
-27128	-15926.923
-28148	-15834.466
-28114	-15786.296
-26746	-15793.584
-26114	-15851.453
-27134	-15943.522
-28179	-16048.235
-28120	-16145.889
-27115	-16223.965
-27107	-16279.166
-27563	-16316.6455
-28449	-16344.941
-28440	-16370.239
-27381	-16391.219
-26717	-16396.588
-27514	-16366.843
-28532	-16279.676
-28495	-16118.644
-27334	-15881.627
-26688	-15587.607
-27665	-15279.12
-28851	-15018.807
-28332	-14879.682
-27101	-14930.684
-26466	-15220.931
-27326	-15765.963
-28432	-16539.082
-28339	-17470.379
-27972	-18454.32
-29607	-19365.54
-32707	-20079.967
-35095	-20496.338
-33712	-20555.316
-39619	-20247.883
-31102	-19623.527
-28686	-18774.244
-29245	-17822.807
-28645	-16898.172
-27206	-16113.569
-26735	-15548.374
-27889	-15236.421
-28799	-15167.605
-28556	-15292.674
-27544	-15537.61
-27212	-15821.285
-28397	-16072.575
-29376	-16243.147
-28736	-16313.372
-27577	-16290.804
-27012	-16203.26
-28026	-16088.023
-28761	-15980.617
-28039	-15903.593
-26512	-15865.96
-26117	-15860.851
-27159	-15871.541
-27824	-15879.377
-27607	-15871.253
-26511	-15844.855
-25436	-15809.789
-26182	-15784.094
-26907	-15787.513
-26404	-15833.292
-25237	-15921.128
-24730	-16034.08
-25578	-16141.0
-26458	-16204.194
-26107	-16190.111
-24909	-16081.27
-24684	-15885.871
-26103	-15642.358
-26696	-15416.502
-26255	-15290.399
-25010	-15346.034
-24646	-15646.391
-25798	-16218.276
-26571	-17041.176
-26527	-18044.346
-26300	-19114.877
-28323	-20114.516
-31529	-20903.684
-31681	-21366.938
-37180	-21432.229
-40591	-21087.31
-30451	-20384.703
-27894	-19425.572
-28097	-18346.957
-27414	-17293.438
-26081	-16392.312
-25577	-15732.363
-26392	-15352.133
-27322	-15237.74
-27012	-15331.42
-26517	-15547.934
-31971	-15793.959
-27589	-15992.6455
-27185	-16092.947
-26592	-16078.595
-25400	-15966.2295
-25127	-15795.958
-26179	-15617.834
-26763	-15477.502
-26395	-15404.631
-25367	-15406.96
-25144	-15471.187
-26225	-15569.913
-27167	-15671.808
-27402	-15752.079
-26003	-15800.2
-25492	-15822.042
-26756	-15836.973
-27676	-15870.153
-27282	-15941.807
-26119	-16057.21
-25732	-16202.684
-26921	-16345.545
-27811	-16441.602
-27389	-16447.29
-26225	-16334.285
-26041	-16102.079
-26991	-15785.495
-27850	-15453.405
-27273	-15198.558
-26048	-15119.683
-25804	-15299.856
-27012	-15785.665
-27710	-16571.96
-27400	-17596.184
-27192	-18744.12
-29061	-19867.145
-30437	-20808.457
-37549	-21429.238
-39768	-21637.74
-41694	-21404.854
-31294	-20773.338
-28648	-19843.586
-28997	-18759.773
-28196	-17679.922
-26986	-16747.285
-26742	-16066.605
-27894	-15688.242
-28847	-15604.281
-28599	-15756.317
-27885	-16052.792
-27153	-16391.332
-28182	-16680.814
-29136	-16858.463
-28632	-16898.174
-27381	-16809.514
-26877	-16628.326
-27984	-16402.432
-28944	-16176.585
-28484	-15979.974
-27151	-15820.457
-27607	-15685.446
-33088	-15549.472
-30051	-15388.818
-28204	-15188.625
-26554	-14951.832
-26224	-14700.544
-27295	-14470.737
-28062	-14301.7295
-27533	-14222.45
-26284	-14240.541
-25841	-14336.094
-26886	-14463.565
-28607	-14561.626
-31432	-14569.034
-27061	-14445.588
-26053	-14185.128
-27127	-13826.128
-27991	-13450.161
-27483	-13169.07
-26334	-13102.862
-26078	-13352.609
-27486	-13974.787
-28326	-14962.745
-27984	-16239.464
-27934	-17665.363
-28392	-19060.145
-37468	-20232.402
-40843	-21018.283
-41068	-21310.596
-42674	-21079.107
-32348	-20380.238
-29115	-19339.762
-29328	-18132.898
-28322	-16947.795
-26879	-15950.746
-26406	-15256.663
-27539	-14911.479
-28492	-14889.475
-28164	-15105.324
-26386	-15437.848
-26036	-15759.107
-27177	-15963.0205
-27839	-15986.3955
-27176	-15818.339
-26024	-15496.627
-25864	-15093.36
-27191	-14694.431
-27863	-14377.078
-27225	-14191.85
-26300	-14153.273
-26756	-14240.617
-27745	-14408.529
-28144	-14602.417
-27482	-14774.683
-26454	-14897.671
-26237	-14969.314
-27462	-15010.177
-28241	-15053.094
-27623	-15128.941
-26399	-15252.348
-26302	-15412.822
-27636	-15574.298
-28607	-15683.777
-27682	-15686.759
-26381	-15545.983
-26034	-15258.606
-27347	-14866.334
-28062	-14455.076
-27487	-14141.909
-26218	-14052.581
-25810	-14293.804
-26948	-14926.137
-27599	-15944.599
-27671	-17271.057
-29207	-18761.713
-34414	-20229.309
-37099	-21476.996
-38112	-22332.633
-38379	-22680.371
-39463	-22481.652
-30176	-21786.135
-28382	-20710.627
-28524	-19425.707
-27439	-18117.95
-26087	-16955.818
-25949	-16062.579
-27404	-15499.73
-28502	-15264.525
-27283	-15300.629
-26154	-15518.331
-26051	-15819.441
-27266	-16120.099
-27957	-16366.41
-27255	-16539.451
-26004	-16650.162
-25941	-16726.64
-27231	-16798.006
-27804	-16880.398
-27255	-16968.434
-26576	-17035.59
-26015	-17043.287
-27185	-16954.588
-27799	-16749.783
-26979	-16437.393
-25749	-16057.811
-25545	-15677.035
-26884	-15371.824
-27519	-15210.13
-26896	-15230.384
-25834	-15427.225
-25938	-15747.811
-27411	-16100.489
-27509	-16375.472
-26697	-16471.8
-25670	-16326.025
-25721	-15934.562
-26958	-15363.902
-27669	-14744.519
-26948	-14248.418
-25822	-14055.098
-25691	-14311.942
-26952	-15098.264
-27537	-16401.111
-27316	-18108.162
-26879	-20021.346
-29016	-21888.057
-32336	-23445.48
-34144	-24467.55
-34896	-24805.367
-34715	-24415.607
-28375	-23365.664
-28079	-21816.328
-28214	-19997.459
-27304	-18159.44
-26889	-16529.254
-33093	-15273.026
-29592	-14477.948
-28657	-14142.083
-27503	-14188.411
-26251	-14490.163
-26315	-14903.026
-27585	-15297.154
-28166	-15578.3
-27427	-15705.141
-26381	-15684.08
-26427	-15557.878
-27711	-15387.216
-28249	-15231.04
-27838	-15130.459
-26281	-15101.144
-26188	-15133.646
-27461	-15201.984
-28134	-15276.232
-27455	-15334.239
-26429	-15369.556
-26293	-15392.543
-27802	-15425.108
-28557	-15490.213
-27844	-15599.426
-27083	-15743.84
-27249	-15891.436
-27861	-15992.694
-28184	-15993.317
-27503	-15851.648
-26581	-15556.382
-26609	-15139.213
-27719	-14678.125
-28281	-14288.782
-27492	-14104.935
-26467	-14250.794
-26592	-14811.912
-27977	-15810.55
-28727	-17191.78
-27562	-18824.166
-27460	-20515.96
-29951	-22045.07
-33296	-23197.34
-35241	-23804.227
-35411	-23774.896
-34727	-23110.451
-28554	-21908.23
-28267	-20338.475
-28313	-18620.84
-27427	-16980.062
-26842	-15608.421
-26370	-14636.796
-27625	-14117.389
-28131	-14023.347
-27186	-14262.307
-26183	-14701.409
-26326	-15197.512
-27626	-15625.767
-28162	-15901.481
-27304	-15989.872
-26382	-15904.386
-26662	-15695.25
-28628	-15431.248
-29136	-15180.862
-27509	-14995.522
-26261	-14899.786
-26320	-14890.407
-27632	-14942.642
-28079	-15021.411
-27089	-15091.258
-26003	-15130.204
-26127	-15132.182
-27333	-15106.732
-27869	-15073.298
-27217	-15052.181
-26545	-15055.861
-26145	-15083.46
-27182	-15119.602
-27684	-15139.204
-26805	-15115.988
-25850	-15033.029
-25962	-14890.846
-27137	-14715.674
-27781	-14556.068
-26859	-14475.406
-25766	-14539.004
-26112	-14798.971
-27783	-15280.141
-27943	-15970.965
-26890	-16820.422
-26826	-17743.775
-28864	-18636.04
-31818	-19389.785
-34084	-19915.229
-34217	-20153.047
-34111	-20087.213
-27887	-19748.098
-27777	-19199.082
-28556	-18530.723
-28049	-17838.424
-26622	-17205.604
-26586	-16691.16
-27785	-16322.694
-28199	-16096.825
-26987	-15985.382
-26229	-15946.023
-26472	-15934.649
-27731	-15916.488
-28188	-15872.434
-26992	-15800.524
-26055	-15712.52
-26486	-15627.435
-27156	-15564.138
-27586	-15534.386
-26481	-15539.247
-25255	-15569.446
-25379	-15609.255
-26806	-15642.625
-27099	-15659.355
-25962	-15659.36
-24931	-15653.135
-25027	-15658.833
-26967	-15695.854
-34134	-15776.083
-27810	-15901.957
-25288	-16056.905
-25281	-16208.9795
-26434	-16317.011
-26924	-16340.696
-25846	-16252.305
-24883	-16047.314
-25159	-15751.336
-26386	-15420.234
-26939	-15133.104
-25953	-14978.372
-25026	-15036.102
-25912	-15359.819
-27109	-15962.46
-27161	-16808.51
-26169	-17814.928
-26226	-18861.977
-28858	-19811.955
-32422	-20532.418
-34737	-20918.38
-34711	-20912.422
-34327	-20514.18
-28048	-19781.805
-27949	-18816.441
-28209	-17751.094
-26523	-16722.955
-25394	-15850.984
-25653	-15218.7
-26741	-14863.848
-27084	-14777.081
-26083	-14908.985
-25110	-15183.94
-25412	-15517.747
-26739	-15833.838
-27326	-16076.232
-26507	-16215.922
-26044	-16250.766
-26047	-16200.23
-27449	-16095.653
-27815	-15970.367
-26668	-15850.743
-25879	-15751.31
-26231	-15674.366
-27442	-15613.248
-28079	-15558.337
-27067	-15502.456
-26085	-15444.889
-26584	-15392.482
-28219	-15357.413
-28151	-15352.407
-26738	-15384.097
-25691	-15448.187
-25787	-15527.806
-27161	-15595.564
-27686	-15620.033
-26527	-15574.461
-25729	-15446.574
-26098	-15246.197
-27062	-15008.47
-27803	-14790.946
-26975	-14664.636
-25801	-14700.18
-26016	-14951.947
-27343	-15443.688
-27808	-16158.934
-26731	-17038.338
-27027	-17985.662
-29697	-18881.996
-33172	-19606.121
-35352	-20055.361
-35829	-20164.516
-35912	-19918.65
-35562	-19356.44
-30777	-18563.924
-29309	-17659.252
-27711	-16769.822
-26930	-16010.388
-27317	-15464.179
-28519	-15170.66
-28867	-15119.073
-27572	-15259.371
-26734	-15511.777
-27367	-15785.48
-28449	-15997.905
-29139	-16090.124
-28219	-16036.401
-26860	-15846.169
-27249	-15558.266
-28317	-15230.3
-28679	-14924.646
-27484	-14695.145
-26452	-14577.01
-27035	-14581.8
-28210	-14698.724
-28540	-14899.457
-27312	-15145.983
-26538	-15398.793
-27312	-15623.835
-28133	-15796.637
-28216	-15902.643
-26919	-15934.71
-26193	-15890.06
-26552	-15767.972
-28024	-15568.955
-28579	-15296.652
-27377	-14961.865
-26511	-14586.56
-27129	-14207.406
-28732	-13876.275
-29926	-13656.163
-28458	-13612.835
-27506	-13802.146
-28118	-14257.112
-29171	-14976.717
-29595	-15919.047
-28782	-17001.559
-29163	-18109.156
-31957	-19110.287
-35074	-19877.389
-36961	-20307.76
-34964	-20342.46
-42312	-19974.5
-34722	-19258.031
-32197	-18291.602
-31585	-17206.594
-29821	-16141.782
-29014	-15220.718
-29821	-14532.887
-30992	-14121.631
-31442	-13982.016
-30239	-14067.113
-29250	-14302.16
-30596	-14602.722
-34923	-14892.418
-32782	-15118.912
-30582	-15258.194
-29567	-15314.88
-30077	-15314.986
-31206	-15294.406
-31609	-15286.297
-30506	-15310.772
-29708	-15370.047
-30202	-15449.665
-31335	-15524.472
-31699	-15568.1045
-30865	-15562.405
-30549	-15504.234
-30424	-15408.005
-31398	-15301.36
-32006	-15216.979
-31082	-15181.645
-30225	-15206.43
-30660	-15280.761
-31911	-15372.805
-32167	-15437.103
-31039	-15426.672
-30744	-15308.225
-31452	-15076.49
-32864	-14762.713
-33167	-14434.969
-32053	-14188.635
-31287	-14128.692
-31902	-14347.368
-33106	-14901.444
-33276	-15794.448
-32149	-16967.998
-32261	-18305.848
-35257	-19649.838
-38945	-20825.803
-39042	-21674.299
-43318	-22077.268
-47542	-21981.717
-37472	-21412.98
-34088	-20462.646
-33372	-19277.037
-31536	-18027.262
-30288	-16878.8
-30607	-15963.754
-31537	-15361.071
-31663	-15087.635
-30381	-15102.119
-29643	-15319.949
-30434	-15635.789
-30983	-15947.322
-31207	-16175.419
-29992	-16276.771
-29352	-16246.662
-30220	-16112.962
-31504	-15922.937
-31822	-15727.28
-30536	-15565.933
-29617	-15458.415
-30272	-15401.868
-31382	-15376.17
-31954	-15353.471
-30714	-15309.682
-29496	-15233.976
-29986	-15133.415
-31071	-15031.433
-31069	-14960.466
-29699	-14951.128
-28853	-15017.595
-29282	-15156.175
-30259	-15339.509
-30244	-15522.739
-28980	-15655.668
-28404	-15698.222
-29444	-15635.803
-30298	-15489.559
-30278	-15317.814
-28895	-15207.923
-28182	-15259.055
-28873	-15560.001
-29883	-16166.155
-29924	-17080.816
-28884	-18246.83
-29072	-19550.277
-31935	-20837.057
-33521	-21939.766
-40794	-22706.059
-41676	-23031.5
-43571	-22877.838
-34039	-22285.625
-31477	-21360.498
-31061	-20258.902
-29366	-19155.45
-28492	-18210.832
-29106	-17544.062
-30175	-17213.17
-30220	-17209.182
-29064	-17464.027
-28767	-17869.605
-28887	-18304.402
-29497	-18659.873
-29618	-18861.705
-28499	-18881.53
-27862	-18737.037
-28471	-18481.895
-29739	-18187.992
-29852	-17925.836
-28563	-17746.799
-27952	-17672.812
-28746	-17695.146
-30195	-17781.414
-29592	-17888.863
-28206	-17978.746
-27617	-18028.52
-28199	-18038.627
-29239	-18030.89
-29425	-18039.766
-28173	-18099.082
-27496	-18228.592
-28182	-18424.408
-29321	-18656.426
-29537	-18874.459
-28587	-19021.621
-28103	-19052.2
-28294	-18949.617
-29212	-18737.938
-29269	-18484.475
-27953	-18290.955
-27162	-18273.84
-27871	-18538.824
-28871	-19154.104
-28827	-20128.402
-27660	-21399.836
-28190	-22838.947
-30075	-24267.129
-39093	-25483.965
-41844	-26305.955
-41699	-26598.412
-43227	-26300.955
-33499	-25443.139
-30591	-24133.72
-29955	-22543.357
-28309	-20875.512
-27839	-19327.652
-28921	-18059.48
-29719	-17169.469
-29776	-16684.47
-28942	-16563.967
-27921	-16717.139
-28511	-17027.68
-29378	-17380.617
-29259	-17684.787
-28006	-17886.842
-27370	-17974.012
-28089	-17967.367
-29046	-17907.871
-28987	-17839.098
-27737	-17792.637
-27459	-17779.115
-28622	-17787.867
-29087	-17793.75
-28805	-17767.625
-27434	-17688.879
-26751	-17554.174
-27566	-17380.8
-28708	-17202.363
-28744	-17058.375
-27376	-16980.898
-26856	-16981.94
-27721	-17046.39
-28747	-17132.785
-28986	-17182.512
-27560	-17136.047
-26994	-16951.896
-27876	-16624.453
-28825	-16194.003
-28826	-15746.1045
-27722	-15399.123
-27105	-15281.361
-28013	-15503.664
-28989	-16131.344
-28904	-17163.137
-27847	-18522.8
-28421	-20065.227
-36177	-21596.959
-39072	-22911.482
-40214	-23823.238
-40339	-24202.047
-40832	-23996.455
-32479	-23247.07
-30542	-22067.9
-29714	-20634.463
-28131	-19145.652
-27384	-17788.033
-28232	-16705.656
-29579	-15979.516
-29777	-15620.859
-27998	-15579.3545
-27237	-15761.357
-28154	-16055.82
-29102	-16359.76
-29019	-16597.643
-27689	-16730.424
-27096	-16757.502
-27692	-16705.81
-27944	-16615.07
-27893	-16521.78
-27092	-16447.885
-27246	-16395.607
-27889	-16351.042
-28582	-16292.804
-28444	-16203.665
-27345	-16080.753
-26891	-15940.795
-27851	-15818.155
-28823	-15755.582
-28671	-15790.434
-27343	-15939.488
-26790	-16187.926
-27851	-16486.834
-29126	-16760.59
-28604	-16923.227
-27334	-16900.598
-26861	-16653.7
-27712	-16196.855
-28694	-15604.663
-28476	-15005.359
-27141	-14559.996
-26617	-14431.141
-27542	-14747.864
-28627	-15573.797
-28560	-16885.865
-27709	-18569.344
-27891	-20431.402
-31062	-22231.219
-34281	-23721.475
-35305	-24692.047
-34824	-25007.621
-35564	-24633.09
-30402	-23638.623
-29727	-22181.572
-29040	-20483.281
-27540	-18782.506
-27134	-17293.203
-28804	-16170.577
-29781	-15490.304
-28817	-15243.981
-27217	-15351.3545
-26685	-15685.562
-27607	-16104.922
-28604	-16483.438
-28458	-16733.379
-27161	-16816.795
-26402	-16743.383
-27372	-16558.312
-29014	-16323.4
-34925	-16096.14
-28786	-15918.909
-26506	-15806.163
-27341	-15748.213
-28386	-15720.216
-27873	-15694.678
-26463	-15653.682
-26047	-15596.357
-27303	-15540.042
-28231	-15513.994
-27844	-15547.143
-26459	-15654.889
-26098	-15828.732
-27967	-16033.254
-28407	-16212.081
-27790	-16301.13
-26564	-16247.622
-26179	-16029.732
-27219	-15671.34
-28127	-15246.778
-27867	-14872.83
-26725	-14689.177
-26083	-14829.679
-27082	-15391.245
-28132	-16406.816
-28012	-17828.87
-26719	-19528.664
-27227	-21311.486
-30777	-22947.441
-33982	-24211.018
-35484	-24920.836
-35219	-24974.643
-34732	-24365.383
-28923	-23187.7
-27923	-21614.357
-26816	-19871.574
-25676	-18192.88
-25396	-16779.605
-25855	-15769.402
-26609	-15217.647
-26059	-15095.883
-24772	-15306.238
-24350	-15708.193
-25712	-16151.192
-26611	-16505.717
-25946	-16686.719
-24785	-16664.488
-24362	-16462.646
-26443	-16144.727
-29826	-15793.938
-26826	-15492.197
-25066	-15298.702
-24526	-15239.99
-25896	-15308.094
-26985	-15467.683
-26381	-15668.769
-25147	-15861.225
-24792	-16008.042
-25959	-16092.586
-26883	-16119.378
-27316	-16108.112
-29927	-16083.338
-26524	-16066.463
-26873	-16064.876
-27486	-16070.553
-26787	-16062.952
-25652	-16017.091
-25149	-15914.7705
-26394	-15755.274
-27321	-15562.184
-26862	-15383.804
-25499	-15285.801
-25127	-15338.171
-26470	-15599.113
-27512	-16099.19
-26650	-16829.441
-25693	-17736.781
-26271	-18728.72
-29594	-19686.86
-32937	-20486.193
-34347	-21017.762
-34585	-21205.102
-35125	-21020.988
-29331	-20493.453
-28541	-19694.68
-27890	-18734.822
-26789	-17737.867
-25828	-16821.816
-26941	-16081.271
-27819	-15575.716
-27289	-15324.368
-26354	-15308.996
-25998	-15482.692
-27152	-15782.03
-28024	-16140.429
-27457	-16498.215
-26104	-16809.393
-25997	-17043.93
-27802	-17186.396
-28214	-17233.076
-27521	-17187.047
-26284	-17055.283
-26013	-16847.63
-27410	-16577.885
-28516	-16265.642
-27487	-15937.731
-26106	-15627.581
-25811	-15372.02
-27019	-15205.643
-27960	-15153.464
-27894	-15223.202
-26137	-15400.563
-25512	-15648.035
-26831	-15909.806
-27717	-16121.809
-26883	-16225.129
-25577	-16180.071
-25286	-15978.401
-26567	-15650.366
-27489	-15263.49
-26868	-14913.014
-25945	-14704.98
-26117	-14735.279
-27227	-15068.804
-27865	-15722.634
-26866	-16656.91
-25724	-17776.264
-26421	-18942.27
-29881	-19994.842
-32759	-20779.705
-33779	-21172.318
-33804	-21102.512
-34101	-20566.146
-28838	-19627.432
-28281	-18403.64
-27539	-17050.732
-25794	-15732.845
-25310	-14596.432
-26427	-13748.942
-27352	-13245.172
-26629	-13083.56
-25237	-13212.442
-24838	-13544.649
-26140	-13977.202
-26952	-14411.036
-26322	-14767.058
-25343	-14996.573
-25559	-15084.33
-26264	-15045.36
-27122	-14915.82
-26476	-14741.938
-25160	-14569.413
-25010	-14434.7705
-26172	-14361.613
-26954	-14360.145
-26091	-14429.872
-24703	-14563.159
-24422	-14748.51
-25932	-14972.703
-27404	-15221.066
-26283	-15476.005
-24739	-15714.8
-24320	-15909.136
-25564	-16027.1
-26316	-16038.065
-25596	-15919.621
-24392	-15665.536
-24320	-15293.092
-25541	-14846.69
-26167	-14396.238
-25553	-14029.17
-24696	-13837.053
-24130	-13899.275
-25486	-14266.008
-26366	-14944.986
-25846	-15894.29
-24871	-17024.066
-25641	-18207.348
-29197	-19298.771
-32107	-20158.46
-33405	-20674.55
-33711	-20782.549
-34070	-20476.771
-28882	-19812.52
-28049	-18891.668
-26638	-17849.205
-25354	-16826.127
-25033	-15946.732
-26062	-15299.718
-26694	-14926.761
-26037	-14820.249
-24804	-14930.903
-24641	-15182.445
-25733	-15489.594
-26411	-15775.774
-25966	-15986.473
-25122	-16096.075
-24576	-16107.862
-25810	-16046.917
-26501	-15949.916
-25715	-15852.952
-24532	-15782.362
-24345	-15746.559
-25835	-15741.399
-26443	-15751.451
-25601	-15757.052
-24519	-15742.293
-24831	-15700.9
-26655	-15638.381
-26752	-15570.142
-25819	-15514.856
-24703	-15487.334
-24577	-15491.906
-25861	-15519.115
-26494	-15546.85
-25877	-15545.546
-24837	-15488.157
-24649	-15360.481
-25850	-15169.824
-26685	-14949.42
-26244	-14755.931
-24877	-14660.625
-24768	-14734.867
-26048	-15033.506
-26865	-15579.645
-25799	-16353.87
-24730	-17291.361
-25629	-18288.553
-28849	-19218.68
-31801	-19952.809
-32798	-20382.232
-30647	-20439.283
-37947	-20107.326
-30915	-19431.324
-27335	-18502.494
-25932	-17446.525
-24801	-16398.66
-24679	-15481.368
-25781	-14784.747
-26476	-14354.23
-25709	-14187.641
-24587	-14240.898
-24453	-14441.79
-26089	-14707.383
-27319	-14961.836
-26381	-15149.728
-24768	-15243.355
-25105	-15242.674
-26347	-15169.428
-26821	-15057.1455
-25871	-14939.308
-24774	-14839.401
-24683	-14768.376
-25734	-14722.963
-26437	-14690.522
-25658	-14655.959
-24834	-14608.735
-25343	-14547.956
-26212	-14483.505
-26556	-14432.363
-25875	-14411.783
-24794	-14431.6875
-24556	-14488.551
-25833	-14561.386
-26486	-14618.103
-25587	-14620.779
-24680	-14537.307
-24697	-14353.922
-26189	-14084.706
-26803	-13775.67
-25647	-13500.537
-24629	-13348.889
-24705	-13408.882
-25953	-13747.298
-26436	-14391.552
-25522	-15317.416
-24801	-16446.602
-25909	-17655.662
-29354	-18794.066
-31709	-19709.887
-30712	-20276.229
-36009	-20412.254
-40222	-20101.447
-31396	-19396.64
-28427	-18403.922
-26914	-17268.69
-25476	-16146.046
-25430	-15174.181
-26626	-14452.109
-26928	-14026.304
-25986	-13887.16
-25007	-13977.515
-25167	-14209.856
-26766	-14487.511
-26798	-14726.238
-25817	-14869.28
-24642	-14895.418
-24572	-14817.869
-25924	-14675.224
-26560	-14517.522
-25722	-14390.806
-24669	-14325.383
-24571	-14329.305
-25918	-14388.848
-27412	-14475.482
-32289	-14555.112
-26415	-14603.414
-25342	-14609.457
-26467	-14580.767
-26862	-14540.272
-25764	-14517.687
-24771	-14538.445
-24916	-14613.416
-26186	-14733.063
-26741	-14867.191
-25677	-14971.442
-25462	-14999.435
-30443	-14917.478
-27816	-14721.541
-27239	-14441.47
-25982	-14142.318
-24869	-13914.638
-25107	-13857.22
-26303	-14055.07
-26988	-14557.521
-26105	-15361.917
-25119	-16406.658
-26506	-17576.455
-29684	-18719.482
-30583	-19673.777
-36407	-20293.777
-38030	-20481.354
-40874	-20202.934
-32279	-19499.93
-29046	-18475.43
-27279	-17280.086
-25863	-16081.199
-26084	-15033.367
-27448	-14252.573
-27896	-13798.832
-26674	-13670.322
-25711	-13810.244
-26366	-14124.358
-27881	-14504.252
-28459	-14850.834
-27183	-15092.824
-26424	-15196.833
-26487	-15168.317
-27889	-15042.711
-28411	-14871.313
-26886	-14705.189
-26172	-14580.846
-26919	-14513.213
-27708	-14495.716
-28319	-14506.077
-26759	-14517.282
-25054	-14508.306
-25316	-14472.512
-27282	-14420.485
-27537	-14376.816
-26364	-14370.21
-25799	-14421.661
-25449	-14535.157
-26862	-14690.964
-28093	-14847.486
-26903	-14950.222
-26379	-14946.1875
-26791	-14801.657
-28201	-14516.951
-28784	-14134.6455
-27292	-13737.759
-26297	-13437.018
-26567	-13349.946
-27522	-13575.054
-28302	-14167.349
-27185	-15120.201
-26146	-16359.053
-27572	-17748.977
-34640	-19114.67
-38984	-20272.322
-39945	-21061.486
-39281	-21374.725
-42721	-21176.164
-33320	-20511.514
-29437	-19491.025
-27379	-18272.02
-25741	-17025.275
-25816	-15904.246
-26969	-15019.427
-27283	-14423.542
-26121	-14109.795
-25751	-14022.736
-25659	-14079.49
-26748	-14193.62
-27205	-14297.253
-26302	-14355.01
-25412	-14367.737
-25679	-14365.526
-26096	-14392.797
-26044	-14489.834
-25075	-14675.861
-24509	-14939.545
-24956	-15239.453
-26703	-15513.688
-26598	-15697.347
-25358	-15740.89
-25166	-15626.343
-26201	-15375.93
-27646	-15049.542
-27921	-14731.406
-26631	-14508.692
-25558	-14448.442
-25894	-14577.546
-27126	-14872.47
-27591	-15261.592
-26215	-15640.488
-24449	-15897.276
-25007	-15942.042
-26151	-15734.097
-26336	-15298.753
-25275	-14728.912
-24419	-14170.521
-24752	-13794.268
-25781	-13758.949
-25714	-14174.246
-24502	-15071.25
-24556	-16388.387
-26892	-17976.72
-30907	-19623.66
-33206	-21090.807
-34212	-22157.365
-35273	-22661.7
-36372	-22531.701
-30738	-21800.656
-29569	-20590.592
-28281	-19096.809
-27241	-17544.986
-27497	-16149.337
-29232	-15076.046
-30912	-14418.57
-28097	-14189.394
-26155	-14326.666
-26282	-14716.531
-27766	-15222.708
-27874	-15717.017
-26247	-16102.824
-25709	-16328.036
-26471	-16386.855
-27727	-16309.922
-28284	-16147.089
-26887	-15949.364
-26204	-15753.973
-27681	-15577.253
-28746	-15416.575
-29181	-15258.197
-28235	-15089.424
-27787	-14909.463
-28964	-14735.961
-30754	-14603.754
-31295	-14555.902
-30301	-14629.4375
-29431	-14839.869
-30049	-15169.808
-31574	-15566.074
-32388	-15947.133
-30964	-16220.296
-30084	-16305.121
-30650	-16158.428
-31879	-15793.452
-31964	-15287.502
-30680	-14774.462
-29829	-14422.548
-30144	-14401.587
-30756	-14844.679
-31337	-15813.806
-30343	-17277.197
-29924	-19104.174
-31026	-21080.38
-34706	-22940.604
-37679	-24414.639
-38484	-25275.447
-39090	-25381.332
-40805	-24704.219
-34891	-23334.986
-33237	-21463.953
-31754	-19352.725
-30932	-17281.732
-32438	-15501.652
-40916	-14191.464
-35724	-13437.684
-33548	-13221.8
-32864	-13436.727
-33373	-13916.632
-34317	-14475.487
-34217	-14945.994
-33291	-15210.28
-32904	-15217.871
-33573	-14987.106
-34727	-14591.9
-34951	-14137.942
-34486	-13734.287
-33828	-13468.345
-33902	-13388.728
-34566	-13498.822
-34538	-13761.984
-33436	-14114.895
-32786	-14485.893
-33554	-14809.826
-34599	-15045.676
-34767	-15177.317
-33694	-15210.816
-33079	-15165.76
-33941	-15064.352
-35886	-14921.559
-35981	-14740.69
-34834	-14514.091
-34382	-14230.271
-34991	-13885.411
-35865	-13494.149
-35873	-13094.375
-34741	-12751.58
-34356	-12547.906
-35273	-12568.249
-36476	-12881.621
-36551	-13522.588
-35587	-14477.468
-34905	-15679.27
-36662	-17013.291
-39995	-18333.219
-42607	-19484.182
-44036	-20328.336
-44977	-20770.205
-46674	-20769.848
-39221	-20353.953
-37642	-19601.883
-36822	-18636.951
-36423	-17598.143
-37185	-16615.98
-37559	-15792.391
-37593	-15186.343
-36680	-14810.088
-36257	-14634.83
-36886	-14604.318
-37748	-14651.859
-37809	-14716.917
-36738	-14757.904
-36275	-14758.326
-36894	-14726.526
-37699	-14688.504
-38166	-14677.629
-36564	-14723.963
-35907	-14845.431
-36375	-15044.873
-37207	-15310.581
-37102	-15621.368
-35674	-15954.001
-34979	-16289.1455
-35746	-16616.217
-36788	-16933.723
-36942	-17245.445
-35525	-17554.285
-35252	-17855.994
-35984	-18135.346
-36331	-18365.543
-36019	-18512.58
-34880	-18543.352
-34421	-18436.117
-35071	-18191.545
