EEG_CH1_RAW	EEG_CH1_BP_0p5_20
26104	-6.335728
62717	-24.86422
61652	-50.41713
29281	-73.04196
9624	-88.28615
17124	-97.15888
43922	-103.9056
63956	-110.923134
26526	-108.81259
1328	-98.28814
7311	-87.09318
33721	-85.228065
51656	-98.08451
18948	-117.766365
1277	-142.61559
10247	-173.12296
37929	-209.85878
44920	-245.78503
12278	-266.90445
86	-270.27286
11034	-259.75894
50906	-248.07497
72811	-243.88882
28929	-242.95274
2587	-250.97679
14873	-278.0414
71880	-336.91852
76163	-417.80966
16371	-495.92505
29616	-567.7932
106854	-637.9242
125481	-693.4656
89586	-720.1738
21124	-708.1135
13031	-672.5764
59255	-641.89514
96123	-639.4206
73187	-672.56836
17513	-739.3751
13088	-843.116
62432	-984.174
106019	-1147.7694
80416	-1298.6354
19226	-1401.1802
14321	-1444.6975
67328	-1439.7745
115909	-1405.3055
93281	-1356.2515
25510	-1310.8186
15744	-1305.2422
69968	-1377.0137
118278	-1540.9154
91991	-1775.3297
31941	-2039.4307
25883	-2296.026
72423	-2512.3977
110319	-2657.2234
94451	-2705.4724
26913	-2649.1296
12879	-2523.371
62559	-2393.0383
106812	-2323.9968
88099	-2361.214
24258	-2523.8735
13836	-2817.1409
64206	-3221.0305
107123	-3678.703
84089	-4101.9194
18626	-4400.685
5803	-4523.9624
37431	-4464.879
68054	-4259.295
46253	-3974.494
5943	-3707.5168
5176	-3571.9326
41274	-3663.9219
73102	-4027.7012
45885	-4630.209
10059	-5377.2954
5729	-6133.3286
35821	-6748.066
72607	-7088.272
44584	-7061.271
5834	-6664.2686
1449	-6000.813
18919	-5261.884
61419	-4693.312
38653	-4519.9023
2348	-4906.422
3551	-5909.215
32113	-7432.781
62673	-9218.41
31578	-10859.105
4099	-11882.775
8868	-11836.63
59780	-10380.348
105341	-7353.538
72408	-2815.8416
15444	2920.8123
6989	9314.802
35161	15681.739
52170	21311.617
44968	25585.13
10886	28079.338
7133	28626.23
44118	27340.986
70242	24607.336
46984	21005.906
8228	17193.412
3948	13773.991
34408	11196.92
72320	9690.998
47559	9256.176
9154	9674.234
5073	10576.85
34734	11552.626
73809	12260.062
47432	12532.151
5806	12406.304
6073	12115.203
36018	12044.279
44380	12652.406
17734	14360.226
-11	17432.834
-27	21904.277
7748	27547.855
25687	33894.965
17771	40315.133
204	46115.26
8334	50654.43
39559	53460.2
46064	54320.605
51849	53307.26
30519	50765.977
4931	47241.957
36239	43367.895
102783	39763.785
89026	36961.246
27868	35310.06
2279	34927.93
23821	35714.383
91160	37397.453
83950	39633.215
16924	42067.566
9873	44376.78
79141	46321.336
164938	47778.965
141236	48760.016
48736	49354.117
15111	49663.055
59801	49769.098
76563	49735.23
51716	49588.57
20085	49319.953
16116	48900.44
76643	48300.22
138171	47527.574
105992	46652.355
18214	45777.586
14826	44984.26
77969	44316.47
146021	43762.887
145538	43250.46
57044	42644.22
16319	41736.312
71816	40291.535
129836	38129.38
117861	35186.137
38048	31546.906
12709	27428.426
64664	23164.623
118999	19173.645
108721	15890.519
34764	13675.974
10079	12713.162
53053	12964.865
97581	14180.766
82233	15940.57
22267	17719.896
9735	18971.764
59853	19241.45
122505	18274.229
89518	16096.224
13552	13000.807
2206	9484.043
20414	6173.2036
50818	3706.2876
29394	2620.3225
2545	3227.3315
3628	5546.146
30506	9295.861
65680	13947.282
48975	18831.781
7931	23253.285
5342	26603.705
41179	28474.63
83333	28727.254
68706	27512.855
18230	25215.096
7928	22344.83
49753	19433.484
99369	16939.736
86437	15173.211
23234	14244.289
7563	14062.089
47418	14395.587
85300	14956.602
61043	15489.606
9921	15825.937
3896	15906.323
30696	15803.879
55037	15670.895
24823	15672.782
3093	15893.205
-573	16283.878
2386	16663.336
11348	16724.988
4653	16106.834
-790	14480.148
9478	11658.42
60598	7686.06
61487	2887.7542
20938	-2162.5872
5049	-6742.9683
-609	-10095.523
-574	-11558.533
1115	-10725.294
1098	-7545.508
-1077	-2367.646
-456	4129.038
3342	11071.039
7366	17526.396
6301	22679.994
1703	26023.578
3127	27455.16
26968	27298.654
57501	26217.232
37185	25077.295
5551	24753.47
4038	25940.96
34722	29000.57
65898	33857.613
33106	40011.24
775	46614.25
3781	52656.133
31148	57173.938
71807	59431.812
73118	59081.836
22451	56247.438
5058	51503.297
35614	45778.48
68011	40172.64
50564	35753.918
8971	33365.17
3237	33487.18
24234	36172.934
61856	41038.793
56209	47361.535
12878	54225.293
6432	60681.19
35799	65921.54
54563	69384.945
42718	70809.664
10334	70242.12
2939	67989.11
24813	64538.11
58519	60437.062
58958	56202.29
18095	52258.01
5802	48897.082
41419	46279.977
85513	44438.465
87321	43309.83
26463	42772.152
7984	42653.88
49981	42749.703
99312	42826.605
97038	42636.883
33689	41933.293
9141	40487.21
51607	38119.3
102111	34748.523
94918	30436.977
27888	25404.432
7754	20019.863
50321	14762.209
101541	10157.07
92439	6708.9023
26776	4797.7134
9061	4611.0566
62001	6103.312
130798	9001.908
136602	12870.034
52386	17187.797
13162	21437.791
66161	25187.303
131223	28174.146
129718	30335.793
42609	31790.17
8413	32759.182
49323	33481.152
104435	34115.81
98949	34685.195
28555	35049.754
7802	34906.12
50027	33872.41
94768	31595.646
85221	27864.95
22004	22707.76
4756	16425.63
38123	9585.031
87210	2935.846
77199	-2704.9807
17873	-6618.817
3854	-8334.376
33439	-7735.1597
77984	-5109.237
64558	-1101.633
12055	3381.1218
2495	7339.973
25877	9874.026
65063	10340.666
49339	8492.995
5763	4526.345
1471	-962.9714
21123	-7090.3545
61723	-12854.407
47574	-17302.63
5449	-19720.145
1289	-19753.045
21398	-17447.594
61948	-13229.698
45564	-7790.8027
4664	-1943.6333
901	3517.3542
18086	7975.8823
55453	11089.299
39015	12825.627
1859	13412.351
209	13274.739
13670	12931.077
49144	12848.791
34544	13361.336
966	14581.832
-20	16413.709
13531	18605.621
52203	20792.21
38454	22595.49
1740	23697.38
33	23925.47
13508	23293.38
50069	21956.975
35119	20175.73
1000	18259.523
-593	16499.02
7753	15114.536
39700	14212.287
24403	13783.668
-381	13716.122
-1146	13856.205
557	14071.91
9638	14258.904
4544	14377.664
-1149	14467.462
-1195	14650.288
2306	15119.774
26814	16067.159
17868	17632.836
-591	19874.535
-189	22758.28
11588	26169.758
46684	29896.496
32393	33663.164
526	37165.824
-707	40120.035
5245	42318.574
31058	43628.99
19744	44016.625
-574	43547.4
-1197	42393.15
447	40825.645
14032	39163.816
10644	37739.992
-847	36858.164
-87	36782.223
8836	37702.02
37041	39673.082
24201	42625.613
-352	46349.95
-32	50529.47
14263	54772.777
35938	58653.164
19216	61772.582
-388	63799.47
-767	64527.91
4878	63908.926
41571	62032.97
54415	59127.004
13331	55520.52
4911	51587.535
44010	47698.383
101206	44159.06
100266	41182.86
35100	38869.2
8177	37197.723
46148	36058.37
95868	35277.453
88406	34661.2
27040	34034.277
5183	33263.43
36524	32276.635
84751	31053.943
73980	29631.107
14473	28073.875
-152	26454.89
1046	24837.908
7803	23262.523
17340	21745.496
7381	20290.549
-84	18898.824
4941	17577.666
28046	16347.769
13621	15243.295
-214	14313.645
-1175	13616.702
-997	13189.5625
-997	13036.756
-1203	13122.76
-1201	13372.52
-1193	13681.232
-1345	13931.474
-4697	14013.343
-3979	13842.792
-1269	13379.164
-1205	12635.622
-1211	11676.939
-1827	10608.224
-1944	9550.93
-1212	8618.481
-1197	7913.1743
-1213	7503.924
-1289	7408.5845
-1353	7591.8203
-1191	7975.3354
-1196	8474.947
-1071	9004.753
344	9482.228
1183	9840.971
-1131	10031.85
1254	10028.093
22671	9825.581
75668	9412.058
89265	8770.647
34874	7883.4336
14436	6723.018
84638	5259.601
158646	3487.914
184935	1449.9845
104538	-745.0517
32532	-2936.3079
81823	-4930.1133
160150	-6507.0317
193291	-7450.483
114038	-7566.0586
40653	-6749.534
89054	-5031.2812
169427	-2568.2302
195620	372.0919
108393	3447.192
33809	6260.9287
80911	8418.191
156102	9605.217
177150	9645.335
97722	8542.419
30858	6466.2896
78959	3731.9246
158265	756.24097
170990	-2004.591
73863	-4122.3223
17617	-5295.0083
72829	-5388.7153
108961	-4443.567
61238	-2672.7607
38711	-443.69778
22000	1821.4215
24080	3730.3364
2850	4985.08
586	5419.078
-956	5045.3525
-1203	4069.7212
-1202	2865.6985
-1204	1889.8257
-1211	1594.4187
-1199	2354.833
-1202	4418.4297
-1185	7880.812
-1198	12644.192
-1217	18415.768
-1198	24763.176
-1201	31190.992
-1204	37224.4
-1196	42437.28
-1194	46485.977
-1186	49141.97
-1173	50312.324
706	50037.387
11504	48436.06
9449	45673.08
-730	41937.113
-987	37430.16
2397	32370.064
21129	26961.047
18378	21403.512
-210	15893.519
-764	10633.058
6308	5834.4404
33478	1676.3494
28830	-1705.3411
818	-4247.5864
-539	-5969.459
9628	-6966.7573
38497	-7428.7866
31977	-7598.8916
1164	-7748.42
-627	-8124.155
8449	-8894.809
35999	-10138.848
29491	-11809.281
798	-13753.6045
-662	-15731.347
7946	-17451.771
34706	-18653.246
27652	-19143.139
534	-18859.357
-697	-17882.016
7668	-16422.652
35700	-14811.633
30506	-13420.173
953	-12600.43
-642	-12599.15
8328	-13486.395
31566	-15135.788
27405	-17203.057
866	-19173.799
-874	-20420.97
5983	-20289.594
34843	-18216.379
31512	-13800.231
1201	-6887.3804
-765	2405.0833
7101	13706.391
31724	26419.652
26848	39819.117
1918	53129.523
974	65633.73
17719	76757.266
48949	86106.56
43718	93509.22
3899	98984.336
-185	102706.07
14631	104951.76
48641	106028.94
45971	106243.65
4938	105857.9
171	105064.6
16947	104000.86
50973	102762.43
47173	101440.3
4893	100119.07
-150	98876.34
14701	97777.625
47729	96841.38
43615	96026.66
3584	95192.125
-713	94090.375
9753	92390.27
40002	89696.82
38787	85631.71
3007	79892.37
-552	72321.98
11077	62970.85
40190	52109.492
39436	40233.562
3251	28005.098
-369	16161.035
13674	5423.3467
48331	-3610.2927
46739	-10533.113
4522	-15193.988
-103	-17708.86
16014	-18419.07
50927	-17833.947
49684	-16523.057
6012	-15026.688
-25	-13777.826
15923	-13040.937
50232	-12900.401
48561	-13257.75
5194	-13894.296
-257	-14546.728
14354	-14947.914
47894	-14906.491
46781	-14335.289
4432	-13263.684
-378	-11822.242
13971	-10181.4375
47853	-8529.686
47393	-7026.2563
4751	-5765.843
-447	-4768.3916
13348	-3965.2966
46590	-3247.5881
45816	-2492.9578
4132	-1603.0898
-471	-531.9841
12895	719.0729
44935	2074.579
44543	3420.9768
3990	4633.589
-709	5586.369
10313	6198.553
40944	6442.9287
41476	6360.1655
3433	6038.4756
-763	5592.413
8934	5141.6724
38290	4778.918
39452	4567.9136
3071	4534.2627
-847	4651.065
8100	4863.0854
36431	5099.9033
37331	5305.6963
2679	5451.7705
-795	5524.107
8915	5533.0156
38442	5502.1875
40106	5468.291
3174	5466.704
-873	5503.8735
7424	5566.3574
34600	5620.9497
36480	5635.9673
2523	5592.451
-958	5479.426
4846	5314.1353
28874	5139.062
31794	5026.97
1784	5066.98
-956	5332.3403
5004	5875.447
28894	6709.479
32114	7810.7954
1868	9109.728
-1006	10497.975
4209	11872.405
27556	13130.579
31274	14177.851
1721	14957.547
-1046	15446.853
3014	15689.894
24526	15765.43
29399	15744.498
1545	15689.58
-1057	15634.279
2753	15611.0
23518	15625.774
29220	15635.543
1578	15574.911
-1054	15369.686
2796	14989.032
23764	14433.333
28949	13715.074
1528	12875.49
-1069	11977.063
2489	11123.69
22768	10423.57
28789	9950.529
1623	9745.3
-1076	9811.499
2341	10150.183
22546	10730.159
29328	11475.454
1771	12304.206
-1074	13150.729
2159	13956.252
21435	14675.667
28590	15279.6455
1708	15770.108
-1088	16147.296
2059	16419.506
21392	16593.082
28734	16677.475
1758	16686.709
-1078	16623.576
1979	16492.225
21483	16295.778
29265	16046.688
1864	15770.424
-1099	15487.767
1826	15222.905
20171	14995.135
28021	14822.318
1714	14720.909
-1129	14687.579
1353	14709.52
18864	14761.963
26813	14819.312
1543	14858.993
-1139	14855.662
1268	14795.4795
18604	14668.455
26309	14478.982
1551	14240.78
-1144	13967.728
910	13681.839
17049	13395.617
25321	13119.783
1451	12857.194
-1151	12600.7705
676	12347.818
16524	12084.682
25071	11801.725
1436	11493.794
-1159	11161.43
763	10824.151
16581	10500.249
25688	10215.879
1615	9998.159
-1152	9867.839
728	9845.874
16414	9930.955
25840	10108.629
1690	10348.998
-1156	10607.311
858	10840.043
16541	10994.533
26192	11027.842
1791	10910.917
-1139	10630.779
834	10205.66
16787	9664.967
27241	9055.712
2068	8436.193
-1156	7860.7793
818	7384.942
16150	7040.373
26514	6841.546
1919	6781.1646
-1165	6828.856
601	6950.5635
15966	7095.907
25688	7217.6704
1831	7277.9824
-1177	7249.8623
559	7131.8687
15192	6932.3813
25755	6673.4404
1923	6386.999
-1171	6104.2188
503	5865.3647
14955	5691.661
25745	5592.0
1906	5562.828
-1157	5586.26
523	5651.1904
14887	5733.8125
25699	5810.8115
1964	5864.766
-1179	5882.752
389	5874.2515
14390	5845.551
25683	5806.623
2051	5769.4
-1171	5741.1787
311	5738.529
14214	5762.031
25576	5806.7856
2037	5863.7437
-1179	5916.7637
211	5962.16
13636	5989.065
25329	5990.504
2084	5966.14
-1181	5916.213
141	5858.214
13248	5803.1377
24786	5761.8457
1993	5743.234
-1168	5748.762
-127	5789.4595
12146	5860.746
23435	5951.2983
1795	6046.247
-1196	6125.6636
-211	6185.339
11693	6214.023
23098	6202.774
1796	6148.393
-1172	6050.064
-271	5926.8086
11181	5790.955
22585	5654.259
1734	5527.6895
-1181	5415.8535
-425	5333.8467
10158	5281.821
21410	5253.3057
1614	5237.8364
-1161	5219.5796
-511	5197.649
9544	5163.2847
20197	5109.4556
1429	5033.0347
-1194	4932.702
-667	4825.7246
8958	4722.232
19577	4631.354
1380	4560.744
-1191	4512.345
-672	4498.4893
8766	4517.5903
19703	4562.816
1456	4624.211
-1192	4687.052
-728	4750.651
8616	4806.907
19437	4849.913
1389	4877.224
-1203	4886.2383
-777	4890.534
8163	4896.4087
18461	4909.783
1215	4935.132
-1195	4971.339
-811	5027.1084
8035	5099.551
18736	5182.3853
1298	5267.2246
-1187	5341.237
-854	5405.575
7784	5453.6763
18266	5480.379
1233	5483.0903
-1189	5457.939
-854	5416.075
7524	5361.6313
18207	5299.5127
1307	5235.444
-1197	5170.077
-917	5114.688
7319	5071.234
18216	5039.9927
1343	5020.67
-1194	5007.062
-892	5003.9746
7324	5007.8345
18520	5015.0557
1468	5023.5205
-1179	5026.7676
-965	5030.8755
7011	5034.7354
18218	5037.904
1418	5041.733
-1182	5041.9907
-982	5045.619
6730	5051.5747
17824	5058.3003
1344	5065.437
-1206	5066.391
-1011	5066.196
6717	5062.829
18236	5054.9487
1534	5043.8774
-1182	5026.009
-1022	5009.69
6458	4996.0815
18149	4985.836
1554	4980.7725
-1197	4975.1934
-984	4973.324
6690	4970.7188
18656	4961.925
1693	4943.652
-1196	4906.6914
-982	4855.0874
6600	4787.714
18578	4705.604
1739	4614.701
-1218	4515.7397
-1003	4421.7725
6500	4338.306
18602	4269.1694
1822	4218.534
-1197	4180.953
-1002	4159.8877
6474	4149.462
18676	4142.2603
1827	4133.3384
-1198	4111.5117
-1017	4079.1492
6311	4033.555
18531	3973.797
1821	3903.7683
-1182	3821.293
-1028	3736.1025
5701	3650.7332
19655	3565.9714
2363	3485.6514
-1207	3405.1472
-1049	3330.4553
6081	3260.8809
18554	3195.7625
1959	3138.4092
-1207	3085.5378
-1057	3045.085
5983	3018.1096
18858	3004.2605
2065	3005.6584
-1176	3014.9888
-1033	3033.9995
5739	3056.7185
18163	3076.1238
1966	3089.1338
-1192	3086.2275
-1097	3070.5125
5291	3041.1702
17484	2999.1572
1929	2950.9363
-1197	2896.5103
-1116	2847.0774
5023	2806.8704
16725	2778.0598
1787	2764.1562
-1194	2758.9712
-1112	2765.4387
4724	2778.9734
16344	2793.6719
1736	2807.1328
-1201	2810.288
-1121	2806.589
4675	2794.9407
15651	2775.3408
1630	2752.108
-1188	2722.894
-1117	2697.2563
4322	2678.338
15384	2667.7341
1664	2669.0583
-1202	2677.0005
-1106	2696.1145
4611	2723.4795
16243	2754.4248
1871	2787.0647
-1191	2811.9722
-1101	2831.0867
5464	2841.0889
19489	2838.856
2510	2827.8306
-1185	2803.9336
-1112	2775.396
4414	2745.2341
16319	2715.579
2078	2691.9243
-1189	2670.8015
-1119	2658.608
4260	2654.6409
16128	2656.1704
2067	2663.706
-1196	2669.7014
-1115	2677.996
4269	2687.3235
16201	2696.213
2138	2707.93
-1211	2717.9604
-1123	2732.8123
3656	2752.869
14910	2776.6042
2005	2805.1077
-1195	2830.8586
-1107	2856.8616
3608	2880.5747
15119	2898.827
2102	2913.2659
-1209	2918.6282
-1121	2921.542
3468	2923.782
15328	2925.8188
2224	2931.7036
-1195	2936.4797
-1077	2944.7332
3633	2954.5938
15639	2962.2686
2350	2968.32
-1180	2965.8818
-1074	2959.5273
3437	2950.1177
15448	2938.4595
2397	2930.636
-1188	2924.7065
-1062	2928.1006
3498	2941.7268
15201	2963.352
2374	2993.2915
-1186	3022.387
-1098	3050.7717
4136	3073.7075
17756	3086.0781
2878	3090.2983
-1189	3081.8625
-1057	3067.5752
3289	3050.5688
15388	3032.5886
2649	3019.44
-1193	3007.5452
-1040	3000.5095
3488	2995.7742
16053	2988.266
2845	2977.9385
-1207	2957.3337
-1004	2929.038
3141	2892.9656
15393	2848.9504
2838	2802.8728
-1174	2752.808
-1027	2705.0222
2745	2660.4448
14533	2617.1084
2689	2576.8015
-1187	2533.2034
-1037	2488.9915
2706	2443.7522
14509	2396.935
2669	2354.2292
-1196	2314.5334
-1079	2284.7366
2352	2266.331
13743	2256.895
2611	2255.9148
-1197	2253.0286
-1076	2244.9478
2163	2224.8884
13161	2186.9412
2491	2133.8484
-1188	2066.344
-1102	1998.4869
2013	1944.3082
13017	1917.6641
2457	1935.3085
-1206	2001.8333
-1127	2122.547
1931	2290.1648
12967	2487.2283
2479	2694.3694
-1182	2881.7063
-1019	3028.6191
3070	3115.8047
15848	3130.9365
2973	3078.0383
-1198	2963.2595
-1196	2809.684
1739	2641.5557
12717	2481.8716
2498	2354.3909
-1206	2268.0654
-1187	2230.7913
1699	2237.425
12888	2273.504
2628	2324.9412
-1204	2369.5566
-1196	2396.1326
1715	2395.3833
12984	2363.1057
2626	2306.6018
-1200	2230.5166
-1186	2150.2026
1759	2077.1023
13525	2018.1387
2788	1981.5096
-1196	1963.2246
-1171	1963.9584
1459	1978.7887
12266	2000.6066
2554	2028.0858
-1204	2054.258
-1197	2082.4468
1431	2113.5837
12559	2146.6675
2748	2184.3735
-1210	2219.815
-1199	2252.3577
1156	2276.6934
12234	2285.6372
2782	2278.7483
-1198	2251.4976
-1203	2211.88
1343	2168.5457
12573	2130.9534
2844	2114.1472
-1192	2123.503
-1189	2168.1987
1324	2247.7363
12471	2352.859
2833	2473.4883
-1187	2588.3735
-1190	2684.1238
1216	2746.9077
12164	2766.5742
2779	2745.6208
-1189	2685.7202
-1195	2603.4353
1132	2515.3472
12051	2435.7783
2764	2380.5635
-1210	2351.9932
-1187	2353.5342
1031	2378.7559
11783	2414.3147
2725	2449.7239
-1197	2467.8735
-1180	2463.8408
1106	2434.902
11781	2382.0566
2734	2315.96
-1201	2242.387
-1200	2175.2861
1020	2123.069
11733	2087.8918
2783	2072.1177
-1210	2066.4329
-1203	2066.6555
1036	2065.0627
11838	2053.3218
2837	2031.2168
-1196	1994.8964
-1200	1951.1925
984	1905.9557
11717	1862.9574
2887	1829.3208
-1192	1801.9625
-1196	1781.8041
983	1764.3907
11936	1742.0721
3054	1713.3201
-1199	1672.6013
-1182	1625.5095
826	1579.4553
11526	1543.0878
2958	1531.4508
-1202	1551.1824
-1187	1611.4152
678	1712.2852
11046	1844.2601
2940	1995.6407
-1194	2142.7656
-1186	2267.2363
639	2349.9844
11334	2375.2537
3163	2340.4546
-1194	2244.5767
-1191	2103.9604
673	1938.6866
11303	1769.7617
3126	1622.678
-1188	1511.5807
-1200	1450.5682
526	1442.7493
10804	1480.5369
3036	1554.4495
-1188	1643.9985
-1197	1734.7616
548	1812.0449
10936	1863.2915
3152	1886.5815
-1186	1878.7821
-1194	1848.3739
550	1804.3275
10972	1753.9357
3218	1708.3588
-1208	1669.465
-1199	1642.2279
442	1626.4552
10613	1617.299
3194	1613.7651
-1209	1608.299
-1210	1600.8862
456	1591.1228
10619	1577.95
3316	1566.6433
-1209	1556.296
-1199	1552.2124
309	1556.7058
10236	1568.2161
3243	1588.4692
-1209	1611.1783
-1206	1635.771
266	1659.4747
10459	1677.3889
3450	1690.4922
-1193	1694.1528
-1206	1691.1996
278	1683.369
10636	1670.2712
3651	1656.5944
-1200	1640.2372
-1216	1624.773
281	1611.3518
10729	1598.0989
3734	1587.8229
-1174	1575.9288
-1209	1565.0857
228	1555.8494
10735	1546.0559
3848	1538.7474
-1171	1530.3159
-1205	1523.2202
188	1518.1254
10703	1512.848
3943	1510.2789
-1193	1506.5609
-1197	1504.1975
148	1504.028
10479	1504.0525
3841	1507.353
-1197	1510.2284
-1215	1514.7991
158	1521.3333
10585	1526.9762
4008	1533.9391
-1181	1537.9907
-1203	1540.7267
73	1542.68
10394	1541.9924
4074	1542.3914
-1173	1541.6052
-1197	1543.0607
118	1548.5471
10562	1556.4347
4229	1569.5021
-1181	1583.3988
-1201	1598.0399
42	1611.4034
10249	1618.3092
4127	1618.8997
-1173	1608.1139
-1211	1587.0991
34	1557.368
10259	1519.1931
4266	1479.3274
-1179	1439.4506
-1181	1406.234
34	1384.5609
10293	1375.048
4326	1381.4968
-1171	1399.5751
-1196	1427.6731
-7	1461.4696
10326	1493.022
4556	1519.5189
-1166	1532.8239
-1188	1532.583
18	1519.2229
10403	1492.4957
4646	1459.2725
-1149	1421.9062
-1206	1387.6564
43	1362.0847
10566	1346.3052
4811	1344.5853
-1159	1353.1138
-1197	1370.6619
18	1393.6635
10601	1415.0457
5097	1433.3176
-1152	1442.4513
-1201	1442.6315
78	1434.9221
11022	1418.9778
5319	1400.9476
-1149	1381.357
-1206	1365.0059
56	1354.6304
11149	1348.3408
5524	1348.1948
-1144	1349.4957
-1197	1350.9548
27	1350.5442
11021	1343.8512
5551	1333.0754
-1134	1316.2428
-1195	1296.8419
21	1278.5616
10948	1262.2664
5527	1253.94
-1152	1253.0232
-1207	1261.5863
-2	1279.572
10889	1302.4711
5616	1330.2365
-1147	1356.9541
-1214	1381.0828
-44	1401.2377
10673	1414.049
5743	1422.5802
-1133	1425.5558
-1196	1426.2692
29	1427.502
11181	1428.4674
6005	1433.1044
-1130	1439.0925
-1190	1446.9932
76	1456.1426
11421	1462.351
6228	1467.0767
-1120	1466.9253
-1168	1462.8254
99	1455.9165
11462	1444.6814
6391	1433.4996
-1120	1421.6188
-1194	1411.4922
134	1404.6201
11347	1398.758
6339	1396.5736
-1108	1395.2705
-1182	1395.368
122	1396.9792
11254	1397.2804
6344	1399.1304
-1117	1400.5369
-1194	1402.9983
10	1407.4899
10851	1411.5385
6288	1417.4963
-1102	1422.3234
-1196	1426.112
75	1428.4264
11125	1425.8164
6459	1420.5771
-1104	1410.6307
-1188	1397.8538
33	1384.3403
11079	1369.3159
6591	1357.37
-1082	1347.8615
-1190	1342.9021
20	1343.5887
11194	1346.9342
6770	1354.6819
-1091	1363.3427
-1198	1372.3984
4	1381.3325
11041	1386.7975
6717	1391.359
-1070	1393.4996
-1179	1395.0045
-66	1397.7809
11021	1400.3573
6864	1406.2963
-1069	1413.9674
-1176	1424.0343
-61	1436.6451
10933	1448.2733
6928	1460.563
-1064	1470.7318
-1194	1479.2068
-115	1486.9071
10747	1491.9573
6932	1498.0851
-1063	1504.8485
-1204	1514.3615
-146	1528.4832
10850	1545.2214
7080	1567.1486
-1062	1591.7719
-1206	1618.5504
-161	1646.6245
11028	1671.5363
7213	1694.2194
-1047	1711.5359
-1186	1723.3594
-133	1730.3379
10854	1730.3088
7247	1726.8263
-1052	1719.5975
-1197	1710.753
-184	1702.5773
10870	1693.6401
7374	1687.2367
-1034	1682.0212
-1199	1678.3156
-254	1676.3612
10676	1672.6786
7358	1668.8682
-1018	1662.7532
-1194	1654.5753
-300	1645.5173
10426	1633.9337
7262	1623.7675
-1032	1615.2987
-1192	1610.9827
-345	1613.537
10069	1621.7671
7084	1638.6373
-1014	1662.1792
-1206	1691.6603
221	1725.9515
11876	1759.8926
7664	1793.7955
-1011	1823.7637
-1199	1848.5781
-448	1868.4293
9728	1880.9191
7146	1889.1859
-1002	1893.006
-1172	1894.4337
-464	1896.039
9726	1896.4686
7242	1898.5061
-991	1900.3894
-1194	1901.7233
-536	1902.4518
9450	1898.9364
7223	1892.4076
-1002	1880.9089
-1194	1865.0027
-563	1846.6727
9286	1825.0417
7111	1804.1816
-980	1784.5516
-1181	1768.3031
-530	1757.9232
9278	1751.8197
7119	1752.3252
-981	1757.5118
-1206	1766.7367
-600	1779.9236
8902	1793.4603
7016	1808.2069
-992	1821.6355
-1204	1833.2728
-612	1843.8556
8936	1850.914
7208	1856.5939
-980	1859.8093
-1216	1861.1659
-606	1862.2434
9072	1861.125
7318	1860.2656
-965	1858.6393
-1187	1856.6295
-648	1855.575
8528	1853.3171
6975	1851.9017
-962	1849.9996
-1194	1847.914
-266	1846.9213
10128	1844.7252
7859	1843.8104
-937	1843.0322
-1205	1842.3857
-668	1842.897
8593	1841.8589
7329	1840.6359
-939	1837.4016
-1184	1831.9315
-372	1825.5908
9919	1816.6514
8107	1808.6609
-928	1802.2924
-1199	1799.6129
-700	1803.8188
8484	1813.8351
7449	1831.6118
-919	1854.615
-1190	1880.2379
-753	1906.3801
8373	1926.955
7524	1940.3948
-912	1943.1752
-1207	1934.9523
-797	1919.0193
8302	1896.9365
7634	1875.629
-891	1859.1636
-1179	1851.954
-809	1857.9592
8140	1874.5747
7592	1900.1201
-893	1927.2778
-1184	1948.4678
-797	1957.8882
8145	1947.8859
7500	1918.1602
-907	1869.6024
-1199	1808.6177
-816	1746.709
7928	1693.4606
7634	1661.812
-884	1659.0421
-1195	1688.7777
-842	1750.6122
7832	1834.6885
7626	1930.3107
-876	2021.5042
-1204	2093.297
-789	2135.3591
8259	2138.5535
7991	2103.887
-852	2035.6576
-1201	1944.1406
-839	1844.4344
8061	1748.1682
8150	1668.6254
-846	1612.2012
-1201	1581.0635
-842	1574.3824
7932	1583.6093
8246	1601.8762
-840	1619.6881
-1189	1630.1917
-869	1631.7106
7776	1622.1406
7877	1605.9742
-858	1586.6716
-1187	1568.726
-894	1557.4603
7656	1552.1718
8328	1553.2177
-793	1556.5629
-1196	1557.8278
-909	1555.0984
7715	1544.1462
8326	1526.6068
-821	1504.1986
-1199	1480.8569
-966	1463.3666
7409	1453.9948
8199	1456.4684
-798	1469.4569
-1186	1489.3741
-992	1512.7764
7504	1531.5593
8591	1541.8428
-808	1539.8732
-1200	1525.3844
-986	1503.8341
7321	1479.5292
8351	1461.4636
-789	1455.9196
-1182	1467.3014
-984	1498.8832
6953	1546.092
8951	1603.7743
-652	1662.8037
-1204	1713.7238
-896	1751.0299
7649	1768.5564
8756	1767.7363
-744	1751.9802
-1191	1727.8877
-971	1705.8695
7201	1691.677
8559	1691.6537
-766	1706.2208
-1197	1731.5809
-982	1762.8705
7073	1789.2858
8476	1803.1976
-762	1797.1434
-1202	1767.3744
-991	1717.2648
7046	1650.6785
8698	1577.8287
-731	1508.464
-1210	1451.4886
-973	1415.7756
7254	1402.2832
8960	1410.805
-704	1435.4502
-1186	1467.6781
-991	1500.9203
7084	1525.7424
8949	1538.3594
-692	1536.643
-1192	1521.5488
-993	1499.382
6822	1473.8694
8871	1451.5936
-662	1436.082
-1191	1428.3633
-1006	1429.8456
6802	1436.006
8995	1444.1582
-659	1450.1123
-1197	1450.3063
-1021	1445.7904
6763	1435.6741
9044	1423.6622
-648	1413.0242
-1188	1406.5509
-1036	1409.0647
6513	1420.0365
8889	1439.969
-638	1466.5024
-1191	1495.606
-1039	1525.7349
6644	1551.9855
9114	1573.174
-618	1587.7266
-1197	1595.222
-1037	1598.7717
6501	1597.8523
9045	1594.5035
-613	1589.2046
-1192	1581.0068
-1044	1571.5458
6488	1558.6255
9296	1543.1575
-577	1525.8434
-1187	1507.2367
-1046	1491.5808
6509	1479.5353
9472	1474.0715
-557	1476.4786
-1197	1485.4799
-1056	1501.3934
6164	1519.4832
9160	1536.7993
-537	1549.6747
-1203	1554.1768
-1022	1550.9076
6279	1538.643
9229	1520.5211
-545	1500.2928
-1202	1481.068
-1032	1468.5706
6263	1463.5178
9562	1467.1981
-523	1478.4733
-1202	1493.046
-1061	1508.7498
6104	1519.7472
9474	1523.5894
-505	1519.223
-1199	1506.2789
-1064	1489.6588
5982	1472.0767
9431	1459.1355
-514	1455.4938
-1205	1462.8046
-1076	1483.6858
5808	1514.5906
9376	1551.9746
-488	1590.6154
-1189	1623.2577
-1093	1646.4729
5756	1654.9586
9571	1647.8872
-456	1626.4758
-1197	1592.9303
-1102	1554.2207
5541	1514.155
9307	1478.2319
-436	1450.6335
-1164	1432.1897
-1116	1425.2734
5261	1427.2098
9108	1436.3369
-477	1450.1837
-1199	1465.228
-1127	1482.0067
5209	1498.121
9168	1513.7896
-457	1529.6041
-1190	1544.3748
-1064	1559.9287
5503	1573.93
9409	1585.5332
-445	1593.5992
-1199	1595.1506
-1116	1591.2124
5173	1580.1757
9469	1563.4165
-391	1543.6227
-1185	1522.2261
-1093	1504.4606
5161	1491.6284
9476	1485.9172
-386	1488.4268
-1199	1496.6364
-1115	1510.2363
4992	1524.5247
9396	1536.3373
-402	1543.3186
-1210	1542.1697
-1122	1534.5834
4783	1520.3765
9208	1502.3229
-380	1484.3502
-1201	1468.277
-1127	1458.8707
4834	1456.2113
9498	1460.4967
-329	1471.0186
-1202	1483.6511
-1132	1497.3702
4629	1507.9131
9348	1513.3938
-324	1513.658
-1189	1507.8213
-1134	1500.0094
4504	1491.7194
9334	1486.1254
-309	1486.4673
-1183	1492.5148
-1141	1506.4194
4414	1525.2887
9281	1546.3754
-306	1566.819
-1188	1581.2443
-1139	1588.8862
4193	1586.7859
9002	1574.9795
-327	1555.7566
-1203	1530.5045
-1155	1505.195
4191	1482.5768
9192	1466.1718
-282	1459.1497
-1207	1460.5537
-1174	1471.8522
4044	1489.7092
9078	1511.117
-270	1533.4535
-1205	1551.8118
-1184	1566.03
3943	1573.5953
8979	1574.3866
-279	1570.1239
-1191	1560.6162
-1157	1549.9321
3931	1538.6365
9275	1527.9982
-222	1519.6185
-1196	1511.6193
-1153	1505.8209
3834	1500.3757
9169	1494.5886
-240	1489.0958
-1196	1482.1732
-1179	1476.6248
3788	1472.1606
9088	1469.5669
-249	1470.5582
-1199	1473.0161
-1134	1478.5338
4016	1484.4965
9521	1488.78
-180	1490.1045
-1175	1484.463
-1151	1472.7428
3744	1453.4259
9303	1427.201
-179	1397.1906
-1187	1364.4918
-1149	1334.9648
3694	1311.0751
9204	1295.6272
-201	1291.4956
-1208	1297.0654
-1169	1313.3488
3443	1336.7059
8983	1363.434
-216	1390.734
-1187	1413.0554
-1181	1430.0607
3417	1439.3938
9143	1440.9828
-177	1437.359
-1191	1428.8715
-1168	1420.6368
3469	1414.1327
9441	1410.8047
-108	1412.4105
-1193	1416.1313
-1171	1422.4824
3390	1427.9432
9540	1429.5494
-81	1426.5271
-1202	1415.6724
-1192	1399.5521
3222	1378.8022
9184	1355.804
-89	1335.0577
-1192	1317.6086
-1174	1308.2471
3170	1307.2288
8892	1313.9692
-166	1327.838
-1198	1343.7131
-1175	1360.414
3188	1373.5754
9213	1380.2249
-87	1380.3699
-1197	1372.0256
-1179	1359.1099
2980	1343.3503
8969	1327.4382
-91	1315.3807
-1191	1306.8302
-1178	1304.6666
3003	1307.0851
9060	1311.57
-74	1316.5793
-1206	1316.9767
-1184	1312.7867
3048	1301.9723
9326	1284.456
-12	1263.469
-1192	1239.6099
-1180	1218.6461
2971	1202.8229
9223	1193.888
-31	1193.9733
-1185	1199.796
-1166	1211.3572
3091	1224.3389
9598	1234.5153
51	1240.2712
-1197	1237.2612
-1176	1227.44
2316	1211.477
9513	1191.437
216	1172.6044
-1200	1156.5088
-1176	1148.5681
3258	1149.5642
10154	1158.8716
146	1176.4492
-1183	1196.597
-1172	1217.734
3045	1234.992
9917	1244.5681
126	1246.4513
-1208	1238.1943
-1192	1223.9478
2994	1205.9896
9750	1187.6133
101	1174.4419
-1186	1167.1467
-1185	1169.9421
2825	1182.206
9427	1201.9089
79	1227.9906
-1201	1254.4238
-1181	1279.8439
2938	1300.1174
9938	1312.2179
202	1316.8856
-1184	1311.6943
-1176	1300.2439
2852	1283.6521
9783	1263.4448
162	1243.5914
-1192	1223.2217
-1200	1205.6731
2851	1190.4584
9786	1176.6641
172	1165.6991
-1186	1154.4498
-1184	1144.7898
2917	1135.8313
9963	1127.2156
237	1121.7301
-1193	1117.8594
-1200	1118.9578
2821	1125.0522
9948	1135.766
238	1152.7887
-1178	1172.5847
-1182	1195.8296
2921	1219.468
10028	1240.2023
241	1257.587
-1183	1266.7994
-1179	1268.6904
2711	1261.904
9857	1246.0651
256	1224.6329
-1192	1197.2036
-1183	1168.8608
2735	1141.7068
9903	1117.4941
250	1100.2415
-1189	1088.2773
-1187	1083.8859
2764	1085.277
10283	1089.754
356	1097.3822
-1211	1103.307
-1184	1107.9261
2518	1109.3173
9854	1106.1542
347	1100.945
-1195	1091.9908
-1182	1082.98
2728	1074.621
10291	1067.2118
408	1063.9187
-1206	1062.3801
-1182	1064.7485
2634	1069.8352
10359	1075.9869
477	1084.9326
-1195	1093.4355
-1195	1103.4141
2364	1113.9945
9843	1124.0022
413	1135.3892
-1194	1144.9364
-1179	1154.1189
2360	1161.3395
10043	1164.5743
477	1165.4438
-1208	1161.0292
-1203	1153.9202
2233	1144.6818
9815	1134.1827
469	1127.1509
-1176	1123.447
-1197	1127.5627
2173	1140.4407
9994	1161.4225
533	1192.0747
-1192	1227.5804
-1191	1266.9058
2104	1305.5776
9704	1338.4504
519	1364.1699
-1182	1377.279
-1195	1378.4185
2103	1366.966
9880	1343.228
533	1312.3395
-1207	1275.1324
-1191	1237.8217
1965	1203.7999
9610	1175.2875
535	1157.0387
-1189	1147.4923
-1207	1148.7174
1852	1158.8801
9651	1174.5287
626	1195.1467
-1204	1214.9609
-1184	1233.2686
2006	1247.3052
10008	1254.5519
691	1257.1713
-1202	1253.0876
-1177	1246.0494
1933	1237.5471
9919	1228.451
699	1223.0441
-1199	1219.7307
-1200	1221.0712
1849	1226.1464
10123	1232.5707
792	1241.4657
-1190	1248.6462
-1196	1255.1636
1731	1260.0321
9621	1262.1423
691	1264.6666
-1207	1265.9045
-1190	1268.9315
1684	1273.8607
9578	1279.3596
727	1287.0554
-1209	1292.6959
-1204	1296.5691
1581	1296.5123
9349	1290.158
659	1279.7916
-1207	1263.605
-1191	1245.9303
1566	1229.2932
9593	1215.5408
820	1209.9067
-1195	1211.1653
-1184	1221.6149
1546	1239.3258
9866	1259.9141
924	1282.0889
-1201	1299.0212
-1201	1309.4393
1483	1311.0068
9650	1302.2726
896	1287.6274
-1181	1267.8456
-1184	1249.3708
1350	1236.2815
9086	1230.8783
790	1237.514
-1194	1253.312
-1194	1278.1655
1279	1307.8428
9012	1336.1672
862	1360.6171
-1192	1374.3988
-1196	1377.0187
1258	1367.601
9138	1346.2584
889	1318.5433
-1190	1285.8301
-1193	1254.4861
1267	1227.9734
9253	1207.5637
897	1196.921
-1201	1192.874
-1211	1195.8907
1291	1203.2053
9662	1210.6471
1067	1218.3767
-1206	1221.8148
-1199	1222.0865
1319	1218.8351
9838	1211.2986
1154	1203.3562
-1205	1193.5588
-1204	1185.328
1286	1179.3566
9826	1174.6101
1154	1174.0657
-1201	1174.3596
-1185	1176.8335
1223	1180.3558
9630	1182.487
1149	1184.8666
-1175	1183.6737
-1180	1180.509
1183	1174.7949
9687	1165.059
1193	1154.3982
-1172	1140.7086
-1179	1127.3566
1068	1115.5654
9519	1105.3317
1247	1100.5947
-1192	1099.4724
-1191	1104.5245
1821	1115.1322
12021	1128.5918
1609	1146.8765
-1196	1165.3912
-1189	1184.4329
1104	1202.2114
9700	1216.0024
1328	1227.7919
-1199	1234.486
-1189	1238.4786
911	1240.1604
9234	1238.6687
1263	1237.1207
-1193	1232.9763
-1211	1228.4165
856	1223.102
9108	1215.2437
1251	1207.0375
-1189	1195.4061
-1197	1182.4467
846	1168.2231
9158	1151.6796
1309	1135.9268
-1185	1118.7129
-1191	1102.7599
850	1088.4327
9295	1074.5981
1375	1064.1588
-1193	1054.4982
-1194	1048.0251
831	1044.9305
9411	1044.0188
1456	1048.2113
-1199	1054.8456
-1194	1066.0354
778	1081.3251
9244	1098.429
1423	1118.8197
-1197	1138.1511
-1189	1156.7803
752	1172.785
9293	1182.8501
1493	1188.091
-1192	1184.5797
-1189	1173.8733
756	1155.9688
9233	1130.0852
1507	1100.2676
-1197	1065.5922
-1194	1030.663
636	998.1134
9040	968.9638
1550	947.9956
-1176	933.8589
-1186	929.1081
693	933.08923
9412	942.49585
1656	957.4489
-1190	972.0169
-1179	985.3702
594	995.1726
9126	998.6076
1651	998.4841
-1200	993.5157
-1181	988.6244
576	987.2399
9189	990.9953
1674	1004.90204
-1191	1026.9037
-1203	1057.8588
522	1094.7565
8995	1131.5708
1581	1165.9817
-1177	1190.5581
-1188	1204.2548
508	1206.1735
9069	1196.1711
1709	1180.6024
-1198	1161.7306
-1199	1146.867
441	1140.3531
8834	1142.7551
1718	1156.0807
-1183	1174.0237
-1190	1192.9773
476	1206.4833
9229	1207.0099
1843	1193.7493
-1191	1163.8989
-1184	1123.4031
358	1080.0731
9243	1042.3973
1983	1023.95325
-1199	1031.1865
-1194	1071.554
366	1145.3965
9270	1245.3088
2042	1362.9963
-1211	1480.868
-1198	1584.4121
323	1658.5989
8223	1690.6198
1614	1677.541
-1189	1617.8792
-1203	1521.339
328	1400.9662
8550	1270.9258
1763	1149.7175
-1206	1047.9076
-1197	976.2912
294	938.2053
8246	929.61
1630	945.91437
-1175	974.30505
-1179	1006.1151
296	1032.3779
8507	1045.475
1751	1046.0111
-1192	1032.9259
-1189	1013.02435
257	992.92566
8427	977.36694
1784	973.70624
-1189	981.29694
-1182	1001.07184
227	1029.6016
8209	1059.9183
1723	1088.684
-1191	1108.0391
-1204	1116.5609
178	1113.6602
8051	1099.5082
1684	1080.3741
-1199	1058.3815
-1182	1040.1143
138	1029.4913
7783	1026.8975
1586	1034.6001
-1196	1047.6066
-1183	1064.0927
163	1080.0935
8081	1090.2219
1726	1094.4769
-1201	1089.1187
-1207	1076.9042
114	1060.5752
8046	1042.007
1807	1027.4578
-1189	1017.3025
-1203	1015.2691
98	1022.0119
8113	1034.7493
1798	1053.6416
-1202	1072.8956
-1186	1090.8855
91	1105.0559
7993	1111.9962
1834	1113.686
-1205	1108.187
-1196	1098.71
63	1087.6141
7769	1075.4836
1740	1066.5776
-1194	1059.2732
-1188	1055.3796
-84	1054.5642
7276	1054.1649
1693	1055.2122
-1194	1053.8683
-1177	1051.0522
-87	1046.9049
7358	1040.3525
1739	1034.7142
-1199	1028.3177
-1199	1023.83923
-124	1022.2233
7233	1022.0596
1732	1025.3499
-1199	1028.5438
-1197	1032.489
-127	1036.8468
7299	1039.8165
1812	1044.1062
-1197	1047.783
-1182	1053.7426
-137	1063.564
7204	1076.5581
1829	1095.1997
-1203	1115.891
-1214	1138.3573
-213	1160.1647
7117	1176.511
1857	1186.5667
-1192	1185.0723
-1190	1172.3118
-154	1148.7834
7433	1114.5885
2095	1075.2219
-1187	1031.9918
-1191	990.65985
-223	955.3824
6959	927.46967
1948	910.59644
-1193	901.33435
-1198	900.2571
-197	905.4038
7346	912.34393
2152	920.8286
-1176	926.25165
-1189	929.22614
-243	930.25214
7339	928.62524
2222	928.1535
-1190	927.764
-1186	929.99475
-219	935.6264
7553	942.5602
2355	952.0915
-1191	960.1529
-1207	966.48517
-254	970.0593
7605	968.29663
2455	963.4527
-1192	953.5558
-1193	940.99677
-274	927.4025
7577	912.2023
2490	898.67285
-1182	884.7578
-1184	871.9209
-341	860.426
6461	848.5958
1638	838.68976
-1187	828.3319
-1209	819.7345
-347	814.35144
7063	811.6116
2369	814.63983
-1199	821.2769
-1199	832.5228
-372	847.7179
7033	863.4995
2427	880.11725
-1177	893.12286
-1191	902.38824
-378	907.6823
6811	907.6465
2318	905.61285
-1189	900.8284
-1194	896.5709
-397	894.98846
6778	895.4644
2383	900.23016
-1169	905.86426
-1203	911.7875
-401	916.1446
6887	915.0052
2613	908.83234
-1198	894.3873
-1208	873.3696
-376	847.8388
7083	818.5619
2703	790.6889
-1174	764.63434
-1194	743.7971
-396	729.8719
6989	721.2246
2719	719.0778
-1169	719.29193
-1204	721.05695
-405	723.0391
7154	722.304
2924	720.72485
-1172	716.53076
-1192	712.1093
-365	709.4304
7246	708.10974
2972	711.19165
-1194	716.3306
-1214	723.7374
-391	732.2636
7374	738.1339
3159	741.76373
-1175	739.78064
-1207	733.10175
-385	723.2544
6997	710.6403
3037	700.2151
-1157	692.5687
-1185	691.2217
-387	698.0162
6931	711.1022
3074	730.9847
-1172	752.3963
-1194	772.7321
-371	788.89026
7341	796.1977
3417	795.4541
-1181	784.8156
-1191	767.5456
-374	747.95435
7354	728.7484
3519	716.44965
-1146	712.56964
-1184	719.74414
-327	738.0827
7948	763.28
3941	793.64185
-1146	822.5565
-1192	846.46716
-355	862.6193
7759	867.75494
3833	864.9328
-1153	855.25397
-1207	844.0381
-416	836.72723
7445	835.8529
3828	846.27405
-1156	866.4579
-1199	895.0244
-443	927.82666
7311	956.7565
3836	977.1198
-1146	981.10803
-1200	965.6906
-459	930.4187
7360	875.7488
3926	809.10486
-1154	736.357
-1188	667.06323
-437	610.1586
7354	570.55835
4069	554.28674
-1143	560.34454
-1182	586.87396
-501	628.9759
7066	677.6118
4002	726.88336
-1155	768.03723
-1206	796.44403
-467	809.6807
7306	805.7225
4156	788.88074
-1121	761.7009
-1201	730.21185
-466	700.27295
7587	674.54346
4352	658.2357
-1114	651.1722
-1175	653.82324
-500	665.1055
7232	680.64844
4132	699.5972
-1124	717.6447
-1194	733.5949
-461	746.9251
7372	755.61957
4289	762.2703
-1126	766.33856
-1198	769.7336
-597	774.08276
7139	778.18726
4269	784.12335
-1134	790.0766
-1207	796.14594
-596	802.24677
6983	806.0764
4182	809.39557
-1137	811.1275
-1182	812.6372
-572	815.592
7124	819.35236
4338	826.85913
-1124	837.2916
-1206	851.1451
-653	868.16406
6939	884.9875
4311	901.43134
-1126	913.9331
-1191	921.04584
-696	921.98236
6833	914.4652
4348	900.93427
-1105	881.71954
-1194	859.8778
-663	838.99927
6571	820.31146
4019	808.0977
-1117	802.5442
-1181	804.65656
-702	814.4019
6501	828.46515
4171	846.4931
-1101	864.9926
-1191	882.721
-784	899.3753
6089	913.31744
3913	927.1944
-1100	941.14233
-1197	957.4654
-835	978.36383
5874	1002.9428
3834	1032.5159
-1112	1064.3286
-1200	1096.4434
-816	1126.586
6144	1150.0986
4107	1166.2147
-1104	1172.1067
-1190	1167.9913
-808	1155.6093
6024	1135.3638
4137	1111.6145
-1097	1085.899
-1200	1061.2151
-904	1040.2456
5551	1022.5235
3874	1009.9574
-1089	1000.8642
-1189	995.16315
-862	993.0868
5887	992.63025
4205	995.3124
-1081	999.81976
-1204	1006.57935
-901	1016.13336
5886	1026.0631
4149	1036.7228
-1084	1045.0266
-1193	1049.5613
-904	1049.6534
5729	1042.9159
4199	1031.1624
-1086	1014.87555
-1184	997.1175
-879	981.8838
5890	971.02155
4373	969.02893
-1076	976.49036
-1198	993.7966
-913	1020.0905
5712	1050.5396
4333	1082.4772
-1068	1110.3624
-1197	1130.6959
-934	1141.8661
5608	1141.6233
4368	1132.6497
-1056	1116.6866
-1196	1097.7437
-942	1080.5325
6331	1066.5339
6012	1059.042
-998	1057.8738
-1196	1061.8885
-889	1069.4493
5990	1075.8372
4711	1079.651
-1034	1077.7986
-1193	1069.5957
-926	1056.5374
5726	1038.9033
4608	1020.914
-1036	1004.52325
-1184	992.49133
-971	987.38513
5318	988.08624
4391	995.1471
-1046	1005.69116
-1187	1017.48395
-969	1028.9962
5488	1036.6638
4421	1040.7507
-1034	1039.9055
-1196	1034.8333
-971	1027.6163
5443	1018.0113
4544	1008.5936
-1044	999.0604
-1201	989.76764
-989	981.4563
5469	972.03894
4699	962.4101
-1019	951.27954
-1197	938.8923
-982	926.83246
5394	914.37946
4700	903.6986
-1027	894.4184
-1189	886.5541
-1010	880.3932
4986	873.11945
4398	864.25745
-1016	851.1369
-1187	832.56915
-1037	809.28503
5108	780.7352
4688	750.44934
-1002	720.7921
-1195	695.6548
-491	679.7789
6961	674.29645
6179	682.0822
-922	701.9076
-1208	730.9801
-1025	765.97235
5231	799.7624
4957	827.80273
-985	843.999
-1206	844.9596
-1039	830.96954
4834	802.35095
4551	764.5926
-999	722.6822
-1197	683.45984
-1094	654.59
4714	639.52844
4620	641.8425
-989	660.015
-1200	690.48975
-1074	728.762
5024	766.43695
5083	797.915
-975	817.08813
-1193	820.94244
-1017	810.9038
5191	788.7194
5249	761.22766
-964	734.55554
-1195	715.17377
-1068	709.38086
5146	717.9746
5346	741.11804
-945	773.9256
-1186	809.5377
-1088	841.5732
4867	861.46313
5393	865.2731
-956	850.78186
-1191	819.8999
-1079	779.78143
4959	737.53107
5338	703.9481
-954	687.3601
-1182	693.96063
-1071	727.7289
5206	785.3965
5630	862.1362
-952	948.0981
-1196	1032.1111
-1100	1104.8782
5284	1156.1555
5864	1181.6604
-937	1179.4941
-1182	1151.785
-1104	1105.4431
5212	1046.3992
5809	983.60486
-942	923.46106
-1187	870.5997
-1099	828.9962
5046	797.5188
5758	775.88336
-947	761.362
-1180	751.1921
-1106	744.92
4947	740.11414
5756	737.6176
-939	737.29407
-1186	738.98206
-1100	743.8345
4777	749.59827
5813	755.8454
-847	760.5681
-1184	762.09717
-1131	761.3816
4411	757.83484
5731	754.229
-883	752.8664
-1194	755.9663
-1114	766.6513
5071	783.45074
6464	805.10046
-844	827.0944
-1196	843.0091
-1129	847.99786
4873	835.581
6143	804.3101
-842	755.505
-1208	694.48804
-1154	632.16724
4465	579.28906
5729	549.263
-851	552.43536
-1167	594.6751
-1137	677.7849
4561	794.2813
5984	932.80646
-832	1076.6958
-1189	1206.9459
-1152	1307.4172
4213	1363.319
5669	1368.0431
-847	1321.3729
-1201	1229.7916
-1158	1107.3499
4261	969.0648
5824	832.8025
-829	713.5868
-1195	621.82
-1150	564.3106
4268	539.5609
5853	543.276
-816	567.0983
-1194	600.87555
-1155	637.09625
4154	667.9346
5779	690.72534
-816	705.3895
-1185	713.79724
-1162	721.17426
3768	730.4467
5365	745.3843
-827	767.0477
-1187	793.83746
-1161	824.1928
3824	852.8392
5536	876.1942
-819	890.6807
-1197	893.755
-1178	886.74457
3783	870.3602
5636	848.62036
-809	825.65204
-1201	804.81915
-1176	790.6421
3579	783.8063
5528	785.20734
-794	793.6962
-1208	806.5147
-1169	822.5342
3471	838.3428
5503	852.89294
-789	865.5348
-1194	875.8701
-1186	886.2814
3524	896.97
5744	909.63367
-739	924.96783
-1184	941.9392
-1171	960.6747
3448	978.0566
5680	992.27673
-754	1001.08136
-1192	1001.6897
-1175	995.2279
3318	981.27545
5581	962.22394
-754	940.90564
-1189	919.87415
-1172	903.7162
3445	893.69006
5830	891.3429
-754	896.3054
-1200	905.7108
-1191	917.70374
3325	927.32544
5816	931.3079
-721	927.1967
-1188	913.1144
-1176	891.3997
3601	863.9022
6283	835.65814
-697	812.45605
-1199	798.7931
-1206	800.17004
3218	817.5713
5738	850.8121
-706	896.7622
-1192	948.94226
-1177	1001.64307
3207	1046.4171
5866	1077.2131
-680	1089.9138
-1194	1082.1084
-1190	1056.7645
3108	1017.1673
5884	969.9192
-659	922.3855
-1186	880.28674
-1183	850.0576
3098	833.2503
6084	829.93756
-634	837.8523
-1209	851.5263
-1184	866.8986
3141	877.82214
6138	880.7589
-644	874.33954
-1181	858.01874
-1188	835.7004
2904	810.3885
5893	786.8547
-657	769.30914
-1194	759.7348
-1177	761.1509
2860	771.9802
5914	790.0935
-649	812.3141
-1196	833.54144
-1186	851.3858
2879	861.85706
5972	863.34094
-625	855.89667
-1193	839.37396
-1194	816.944
2862	789.995
6133	761.1901
-622	733.4475
-1199	707.65656
-1185	686.65265
2691	670.4684
6023	659.75757
-607	655.1455
-1199	655.2699
-1195	661.00586
2564	670.4414
5873	682.2729
-615	695.146
-1194	705.9237
-1191	714.13794
2418	717.24756
6133	714.22156
-536	705.42114
-1187	690.51263
-1190	672.8363
2691	653.98096
6376	636.8103
-541	624.6567
-1178	618.20197
-1191	619.92206
2582	628.5768
6333	642.6337
-519	660.26996
-1196	677.3335
-1209	692.5463
2530	702.81744
6301	706.98474
-541	705.6243
-1188	698.5357
-1202	689.199
2513	678.92377
6289	669.7873
-522	663.82434
-1210	660.34326
-1201	660.7803
2436	663.361
6350	666.8411
-494	670.6844
-1198	672.8733
-1200	675.0668
2421	677.13245
6366	680.3079
-480	686.71826
-1180	696.2034
-1182	710.9146
2411	729.5285
6331	750.4933
-500	772.1203
-1182	790.16046
-1189	803.4279
2298	808.86865
6313	805.2279
-485	793.4406
-1193	773.5958
-1182	749.89685
2311	724.737
6504	701.1769
-449	682.83875
-1196	669.9509
-1188	664.64325
2291	665.47296
6554	670.7888
-422	679.396
-1192	687.7429
-1198	696.0627
2272	702.7259
6677	707.5009
-414	711.8456
-1197	715.16736
-1199	720.0513
2228	726.2107
6766	733.2545
-381	741.33014
-1194	747.5517
-1189	751.84064
2160	751.87396
6559	746.4081
-413	736.14496
-1194	720.2548
-1194	701.9452
2111	682.6101
6469	664.35803
-431	650.2959
-1197	640.4247
-1190	636.9715
2075	638.9266
6669	644.92725
-363	654.4295
-1197	664.1245
-1182	674.02325
2088	682.2348
6738	687.8623
-329	691.928
-1183	693.21936
-1207	693.82733
1968	693.39954
6625	691.6634
-330	689.3774
-1196	684.3911
-1201	677.5792
2034	667.6588
6946	654.0909
-269	638.645
-1197	621.05316
-1196	604.65344
1931	590.9623
6773	581.7809
-294	580.1087
-1207	585.4202
-1168	599.20636
2082	619.61725
6981	644.14056
-276	671.2897
-1191	696.4699
-1181	718.46515
2069	734.448
7149	742.78503
-259	744.7926
-1199	739.78284
-1190	730.9655
2159	719.7088
7531	707.5683
-189	697.83685
-1199	690.00543
-1187	685.9777
2159	684.7138
7661	684.799
-138	686.69147
-1192	687.5721
-1196	688.1444
2054	687.28815
7274	684.5427
-206	681.88684
-1176	678.3859
-1177	676.40796
2053	675.93164
7400	676.729
-139	680.2693
-1190	684.35065
-1205	689.6194
2059	694.30646
7495	696.789
-139	697.8043
-1209	695.1601
-1200	690.4476
2095	683.45905
7593	674.5051
-122	666.38586
-1186	658.56775
-1188	653.71497
2160	651.8983
7777	652.868
-108	658.121
-1208	665.1678
-1197	674.6836
2144	684.7564
7736	693.53796
-93	701.6745
-1199	706.69525
-1192	709.8913
2153	710.80133
7766	709.4647
-85	708.57245
-1183	707.3585
-1199	708.2963
2097	711.24805
7708	715.6019
-87	722.5545
-1199	729.181
-1207	735.56396
2011	739.4263
7634	738.6611
-62	734.03455
-1184	723.3689
-1186	708.7976
2060	691.0065
8026	671.2317
14	653.6413
-1196	638.5873
-1201	629.4989
1846	626.7987
7616	629.81464
-1	639.3852
-1174	651.8432
-1177	666.3959
1976	679.9417
8051	689.538
71	695.68054
-1191	695.97
-1204	692.4234
1806	685.7317
7736	676.93536
38	669.8218
-1199	664.16895
-1198	662.5786
1771	664.71515
7839	669.221
73	676.82947
-1201	684.1089
-1170	691.17487
1719	696.3533
7898	698.2327
116	698.8976
-1211	697.10913
-1200	695.46735
1682	694.5437
7987	694.34045
178	697.3726
-1206	701.75525
-1197	708.585
1610	716.66077
7881	724.3933
201	733.4171
-1204	741.71735
-1207	751.2563
1504	762.25757
7614	774.64264
185	790.86975
-1196	808.9616
-1185	829.82135
1473	851.5006
7551	871.0726
158	888.14984
-1187	898.571
-1182	902.38605
1388	898.54614
7421	886.7181
143	870.4351
-1203	850.13806
-1194	830.2398
1484	812.935
8478	799.19763
390	792.36664
-1185	790.4573
-1192	794.08844
1301	801.1786
7504	808.8483
222	817.2956
-1211	823.27124
-1216	827.8815
1220	830.9977
7419	832.549
234	835.63153
-1197	839.2765
-1192	845.6955
1197	854.49695
7471	864.0851
271	875.311
-1205	884.85394
-1189	893.0871
1156	898.8337
7519	900.90173
338	901.7331
-1191	900.22925
-1195	899.0552
1129	898.8005
7495	899.0
349	901.62
-1198	903.9373
-1197	906.419
1043	907.42114
7260	904.8545
339	900.0947
-1177	891.24347
-1182	880.8419
1031	870.12335
7274	859.9856
329	854.21
-1187	851.9797
-1183	855.38556
979	863.59125
7253	874.1611
364	887.025
-1195	897.75555
-1184	905.9211
1026	909.7968
7619	907.83594
489	902.71454
-1206	893.84204
-1190	884.84454
1426	877.4538
8910	872.2036
708	872.6042
-1174	876.6015
-1187	884.7888
921	895.0398
7408	903.9433
460	911.22327
-1186	912.84784
-1192	909.3448
848	900.4469
7252	886.1916
464	870.6502
-1189	854.2985
-1176	841.4003
823	833.93604
7289	832.2013
506	838.52313
-1194	849.87213
-1205	865.8306
803	883.44147
7450	898.64197
584	910.92346
-1192	916.25287
-1195	915.48535
767	908.8305
7453	896.6518
599	883.36255
-1207	869.35754
-1199	858.43835
779	851.783
7691	848.43585
729	849.5766
-1184	851.0008
-1201	851.64624
875	848.54083
8101	838.34863
786	822.54724
-1209	799.68286
-1210	773.8214
568	748.5259
6996	727.13855
584	715.97784
-1194	716.05664
-1204	730.6476
541	758.90186
6845	796.7678
544	841.3371
-1192	884.22327
-1198	920.9421
418	945.99805
6591	954.70703
565	947.68005
-1203	923.9413
-1199	888.5815
463	846.404
6798	801.88574
658	762.2306
-1197	729.3177
-1190	707.2269
479	696.37854
6882	694.54987
684	701.42267
-1194	711.89374
-1203	724.8676
444	737.9747
6925	748.617
728	758.10974
-1185	764.1103
-1185	768.535
296	771.4866
6489	771.85724
701	771.2167
-1206	766.8934
-1209	760.3601
344	751.63745
6737	740.2723
728	729.4194
-1205	718.3897
-1204	710.495
381	706.76556
6958	706.3154
804	710.3303
-1191	714.70856
-1191	718.69574
394	719.6406
7224	714.43134
946	704.5851
-1201	689.1179
-1207	672.88525
336	660.4561
7129	655.9581
946	666.4172
-1186	693.05225
-1190	738.4986
307	800.5602
7011	872.79736
913	949.5081
-1194	1019.18506
-1198	1074.4633
239	1107.734
7144	1112.9637
1083	1091.1451
-1178	1042.8126
-1187	975.7646
268	898.4724
7424	819.08154
1203	748.7012
-1190	692.10864
-1189	655.32556
236	639.4662
7388	641.28656
1209	658.6869
-1191	683.7609
-1190	712.1802
218	738.63776
7422	757.86755
1260	769.9552
-1191	772.3384
-1194	767.9291
206	759.0668
7407	747.2359
1291	737.5446
-1194	730.2364
-1206	728.8784
170	734.6535
7314	746.56726
1303	766.42126
-1196	790.7939
-1197	819.5494
229	850.3346
7759	878.8265
1443	904.2206
-1197	921.11816
-1190	928.38385
224	924.0759
7583	905.88635
1387	876.55817
-1215	835.72565
-1201	788.01
146	737.38367
7361	686.65985
1361	641.9797
-1193	604.1867
-1197	576.5772
161	559.46674
7478	550.3051
1399	549.2069
-1195	551.29974
-1189	555.4371
101	559.5835
7361	561.1516
1444	562.3578
-1191	561.59766
-1188	562.02484
136	565.3446
7772	571.26526
1553	582.63257
-1194	596.73346
-1187	613.54767
96	630.8857
7681	644.58655
1565	654.50574
-1201	656.5807
-1199	651.35516
59	639.1538
7381	619.869
1451	598.0642
-1180	574.3105
-1176	552.9176
41	536.45215
7588	525.1097
1540	522.0859
-1196	525.04895
-1193	534.5218
-2	549.1417
7421	565.65955
1548	584.7225
-1186	602.7693
-1192	620.32184
-26	637.0662
7241	651.45245
1539	665.90576
-1186	678.4863
-1191	690.60156
-3	702.1062
7658	710.83704
1786	718.3251
-1202	721.57074
-1218	721.1551
-36	716.7708
7439	706.98975
1688	694.9171
-1179	679.88995
-1190	665.23
-57	653.3033
7507	644.68066
1764	643.41644
-1194	648.2616
-1190	660.55835
-95	679.3999
7170	701.30994
1703	725.9199
-1179	747.9227
-1201	766.43945
-178	779.89166
6872	786.0008
1650	787.2579
-1192	782.8903
-1196	776.3289
-184	770.1184
6871	764.9
1673	764.28186
-1202	766.614
-1199	772.532
-207	780.61945
7015	787.1667
1757	792.18097
-1179	791.87384
-1197	786.81067
-243	777.70105
7006	764.7277
1868	752.7649
-1194	742.80145
-1206	738.9917
-239	743.5541
7001	755.57245
1941	776.2873
-1171	801.1402
-1200	827.8355
-216	852.546
7099	869.9363
1977	879.4828
-1192	877.7974
-1187	866.67224
-243	848.5044
6779	825.1203
1874	802.51154
-1199	781.98505
-1187	767.5424
-276	760.6989
6873	759.56287
1992	764.5921
-1187	771.2625
-1190	777.9568
-303	782.6353
6747	782.5391
2006	779.9044
-1171	774.28125
-1180	769.20575
-321	767.67084
6733	770.51355
2064	781.2107
-1179	797.8513
-1208	819.81085
-322	844.29266
6956	865.86835
2181	882.8422
-1197	890.2851
-1186	887.6061
-332	875.25946
7101	853.6305
2354	828.4092
-1183	802.0979
-1187	780.0443
-356	765.9403
6793	760.06976
2261	764.502
-1171	775.49744
-1182	790.79144
-379	806.62836
7001	817.4224
2427	822.32513
-1186	818.1827
-1201	806.30383
-416	789.0804
6783	768.2736
2384	749.91736
-1196	735.97284
-1177	730.18835
-378	734.1456
6969	745.7897
2511	765.27716
-1183	787.7121
-1194	810.5243
-421	830.6646
6574	844.03705
2369	851.40424
-1182	850.9787
-1203	845.1332
-412	836.38873
6828	825.59717
2563	817.068
-1187	810.45386
-1197	807.2076
-402	807.0642
6986	806.8607
2734	806.697
-1184	802.7665
-1196	794.40204
-434	781.1233
6804	761.4624
2741	738.6787
-1169	712.9824
-1201	687.7866
-460	666.0127
6941	648.1614
2939	637.82336
-1160	633.77576
-1192	636.5946
-472	645.4918
6756	656.9893
2824	671.03937
-1167	683.75446
-1204	694.38715
-472	702.2869
6808	705.4562
3029	706.35583
-1167	704.2563
-1201	701.51776
-451	700.1532
7136	699.83356
3234	703.64496
-1170	710.201
-1191	719.9964
-461	732.4141
7054	744.1328
3286	755.35425
-1166	762.58636
-1190	765.2416
-449	763.0082
7310	754.1826
3501	741.84985
-1170	725.95264
-1201	709.53815
-495	695.36316
7130	683.6199
3525	677.6417
-1159	676.1276
-1199	679.3408
-426	686.314
7573	693.21436
3771	700.0629
-1165	703.4778
-1189	703.1426
-452	699.37616
7387	691.2185
3813	682.4338
-1159	673.63495
-1197	667.8768
-499	667.5001
7267	671.7701
3857	682.78314
-1146	698.05615
-1181	716.55426
-507	736.52954
7223	753.89777
4001	768.7734
-1148	778.36115
-1184	783.1087
-472	784.0086
7539	780.27374
4181	775.3702
-1146	769.1102
-1200	763.3038
-464	759.0637
7635	754.62427
4216	751.84186
-1154	748.8997
-1190	746.25073
-515	744.4048
7249	741.8697
4141	741.2177
-1124	741.54297
-1186	744.00024
-547	749.092
7174	754.38586
4139	760.66095
-1129	764.86566
-1199	766.0505
-594	763.4413
6921	754.6745
4069	742.0272
-1142	725.51697
-1204	708.1098
-630	693.1529
6708	681.70264
3942	677.85815
-1126	681.238
-1188	692.3807
-630	710.4272
6818	731.09766
4066	753.184
-1112	772.1778
-1201	786.3364
-666	794.92444
6806	796.1556
4197	793.1118
-1121	786.47205
-1201	779.364
-777	774.7136
6082	772.454
3891	774.78107
-1116	779.7256
-1193	786.3685
-739	793.2899
6577	796.74963
4153	797.0783
-1116	792.5165
-1204	784.1816
-757	774.2825
6381	763.41144
4076	755.8121
-1124	752.4295
-1204	755.2237
-752	765.2066
6543	779.94836
4256	799.6288
-1096	820.84985
-1186	841.8832
-760	861.4411
6629	876.4843
4395	888.3251
-1081	896.05286
-1192	901.01324
-839	905.0383
6382	907.504
4336	910.9462
-1089	914.58
-1204	918.8739
-827	924.27374
6393	928.7678
4390	933.931
-1083	938.73175
-1192	944.1265
-858	951.56415
6259	960.0874
4348	971.8745
-1091	985.8847
-1191	1001.99365
-834	1019.74567
6123	1035.8499
4303	1050.1234
-1070	1059.7462
-1182	1063.9111
-864	1062.8676
6174	1055.2957
4329	1044.0396
-1096	1029.8342
-1204	1015.21625
-511	1002.988
7551	993.10144
5438	988.71484
-1026	989.66394
-1189	996.2617
-882	1008.7635
6171	1024.5785
4636	1044.1494
-1057	1065.1426
-1206	1086.5724
-914	1107.8927
6027	1126.1055
4461	1141.5499
-1062	1151.9291
-1184	1156.6193
-912	1155.8865
6124	1147.9908
4615	1135.141
-1077	1117.6338
-1201	1097.5935
-909	1077.9958
6018	1059.3164
4543	1044.8853
-1050	1034.5771
-1183	1028.5995
-914	1026.6816
6111	1025.1333
4736	1023.05664
-1033	1017.08093
-1194	1005.6276
-925	988.83307
5933	965.6911
4758	939.7475
-1046	913.13354
-1193	889.6886
-947	873.7342
5993	866.1366
5176	869.3766
-992	882.0014
-1177	901.65375
-957	925.2686
5818	946.53424
4801	962.2938
-1030	967.9241
-1209	961.4424
-976	943.5801
5624	914.6197
4716	879.60504
-1012	842.3112
-1174	807.9065
-423	781.65466
7371	764.8775
5960	760.627
-957	767.69995
-1197	783.7922
-997	806.2425
5499	829.271
4822	850.21747
-1016	865.06635
-1193	872.171
-992	872.49646
5628	866.0493
5013	857.07074
-989	848.3335
-1186	843.366
-1012	845.8202
5624	855.38855
5068	873.01
-994	895.7952
-1196	920.20264
-1019	942.958
5574	958.2332
5090	964.07434
-999	958.00995
-1209	940.4957
-1017	915.2255
5591	885.0105
5171	856.61566
-974	834.6597
-1204	823.32983
-1009	825.7994
5708	839.8034
5328	863.2747
-974	889.71967
-1174	912.14307
-1022	924.975
5639	921.5852
5434	901.26825
-962	865.0822
-1199	818.47125
-1060	771.23444
5548	732.0595
5490	712.2714
-958	718.8742
-1188	755.5799
-1041	822.4257
5696	911.4565
5737	1013.3154
-933	1114.0996
-1195	1199.9518
-1074	1260.3524
5479	1285.8918
5721	1275.1746
-934	1230.5461
-1192	1159.555
-1057	1074.5049
5555	986.0569
5847	906.7081
-926	844.4091
-1203	803.3763
-1076	785.1403
5377	784.72205
5812	797.45374
-906	816.04565
-1198	834.242
-1097	849.21405
5500	857.5927
5901	861.0342
-927	860.9258
-1209	859.5243
-1089	860.2094
5470	862.23486
5905	866.1809
-930	869.84705
-1209	870.78546
-1099	868.7101
5367	861.77356
6063	852.52277
-901	843.59296
-1216	838.57007
-1121	842.4956
5177	856.1109
5773	880.29266
-903	911.44446
-1194	943.34814
-1104	969.8425
5376	981.9286
6121	975.1668
-888	947.38666
-1187	900.93176
-1107	844.5489
5276	787.8732
6304	744.82697
-865	727.26965
-1184	743.3843
-1120	797.4866
5191	884.31494
6265	994.5423
-867	1112.544
-1199	1219.9474
-1113	1300.9017
5154	1340.5647
6291	1332.9127
-869	1278.6542
-1212	1185.5254
-1139	1069.0964
5103	945.53
6499	833.5558
-837	747.89764
-1200	697.33826
-1132	685.70465
5068	707.2123
6456	752.9996
-831	810.0823
-1189	864.5004
-1131	906.30896
4962	926.9013
6398	925.15247
-844	903.9656
-1196	869.6318
-1130	832.4174
5023	799.75037
6496	779.57556
-822	775.6913
-1210	787.6919
-1136	813.76086
4766	846.89276
6278	881.3779
-827	911.046
-1195	930.84515
-1140	940.10547
4600	937.9408
6189	927.79736
-816	913.5315
-1208	898.7666
-1147	888.50214
4615	883.6727
6262	885.81836
-787	894.12555
-1187	906.04376
-1152	920.4924
4261	933.7777
5949	944.8179
-810	952.59326
-1211	956.3802
-1155	958.1529
4253	957.6483
6036	956.7239
-797	956.2468
-1193	956.0773
-1171	957.6338
4102	959.3588
6092	961.43677
-784	963.07446
-1194	963.20685
-1150	963.26196
4146	961.98474
6339	960.1768
-750	958.1941
-1195	955.54
-1168	953.86804
4269	952.04144
6609	950.80585
-729	950.50616
-1196	950.56036
-1191	952.5273
4002	955.26074
6333	959.3292
-729	964.6086
-1180	969.82666
-1161	975.63104
3868	979.8245
6154	981.9407
-742	981.1873
-1196	976.2678
-1174	968.54083
3939	957.31744
6382	944.27594
-749	931.1506
-1211	918.93
-1170	910.7928
3701	906.9655
6179	908.77606
-711	916.5058
-1186	928.70447
-1185	945.5732
3709	964.21387
6273	983.1963
-695	1000.857
-1194	1014.636
-1180	1024.9164
3658	1029.9305
6451	1030.063
-672	1026.1022
-1205	1018.1022
-1191	1008.7764
3668	998.3969
6511	988.80963
-680	981.6984
-1211	977.18555
-1183	977.3114
3697	981.06055
6489	988.4126
-671	998.44415
-1207	1008.902
-1184	1019.8908
3559	1028.6571
6559	1034.1487
-639	1035.904
-1192	1032.7407
-1184	1026.6624
3337	1017.8226
6229	1008.29126
-666	1000.2654
-1202	994.4115
-1207	993.28613
3340	996.00085
6473	1002.10504
-617	1010.3727
-1174	1017.562
-1183	1022.78156
3368	1022.835
6593	1016.6425
-626	1004.3721
-1209	985.86285
-1206	964.5595
3223	942.042
6591	921.36664
-609	905.47656
-1185	894.9117
-1187	891.60486
3087	893.65094
6434	899.25183
-622	906.07104
-1205	910.10187
-1201	910.3913
3111	904.30133
6618	891.64813
-561	873.83185
-1191	851.7065
-1214	829.4869
3266	808.82837
6976	792.15656
-558	781.48236
-1206	775.8817
-1194	776.1507
3164	779.6564
6851	784.60614
-552	789.78314
-1198	792.77466
-1201	794.96204
2943	796.0602
6571	797.67114
-556	802.1897
-1199	810.03784
-1187	823.8739
2838	842.7145
6473	865.43036
-552	890.17065
-1199	912.51715
-1208	930.7758
2880	941.0381
6682	941.43616
-499	932.08234
-1198	912.71967
-1187	887.4732
2898	858.8858
6836	830.9306
-482	807.89386
-1196	791.18866
-1194	783.85974
2998	784.7345
7235	792.15265
-434	804.14636
-1194	816.06964
-1190	826.39813
2869	831.6558
7214	830.3815
-429	823.33325
-1176	810.2867
-1195	795.151
2718	779.7414
6970	766.70294
-442	759.0084
-1192	756.5643
-1209	761.1601
2517	770.9921
6661	784.23694
-457	799.3191
-1174	812.5473
-1195	823.76135
2219	831.01135
6783	833.85675
-394	833.71313
-1192	830.3994
-1193	827.32196
2624	825.22534
7248	825.1937
-376	828.73267
-1211	834.0847
-1198	841.96344
2619	849.87054
7351	855.6957
-351	858.58167
-1199	855.57477
-1206	847.7333
2461	834.3984
7138	816.4358
-314	796.5863
-1198	775.5035
-1208	757.3247
2338	743.33734
6939	734.86597
-366	733.5538
-1206	737.6695
-1187	748.00806
2241	762.17163
6861	777.9315
-347	794.11
-1182	807.2167
-1190	817.52075
2198	823.31335
6873	824.0193
-317	820.7598
-1176	812.5842
-1192	802.1972
2198	789.90875
6991	776.5208
-307	764.0912
-1189	751.98926
-1191	742.80493
2203	736.5567
7079	733.62225
-286	735.6663
-1194	741.4765
-1196	752.8431
2143	768.7256
7144	788.00037
-269	810.5148
-1194	832.9298
-1203	854.9052
2141	873.5366
7278	886.3938
-212	893.12427
-1194	891.21405
-1197	882.1891
2096	866.09186
7218	844.0435
-209	819.39636
-1181	792.9239
-1191	768.6057
2116	747.6598
7382	730.9515
-219	720.41235
-1197	714.20386
-1201	713.2325
2219	715.62415
7823	719.6248
-137	725.67596
-1186	731.32477
-1187	738.06036
2157	745.3734
7619	753.2922
-158	763.8484
-1186	775.72394
-1196	790.87573
2199	808.31866
7791	826.8003
-115	846.7363
-1199	865.0195
-1210	882.0223
2138	895.8779
7666	905.231
-129	911.1885
-1194	911.9711
-1187	909.4985
2120	903.462
7786	893.6714
-71	881.9201
-1195	866.47614
-1189	848.99396
2126	828.7031
7756	805.0983
-92	780.2017
-1197	753.10645
-1215	726.8756
2205	702.62634
8064	681.83594
-32	668.27936
-1197	661.8671
-1189	665.3605
2225	678.24835
8176	699.0741
-5	727.8255
-1217	760.0489
-1212	794.41125
2196	827.0716
8151	854.51965
20	876.27124
-1196	889.03284
-1205	894.10516
1137	891.5294
7314	881.6968
126	867.8239
-1196	849.99695
-1189	831.6808
2211	813.6397
8343	796.17755
64	781.6691
-1186	768.2361
-1199	757.33826
2229	747.81366
8481	738.39355
83	730.58124
-1186	722.22266
-1200	714.947
2096	708.28015
8093	701.88165
26	698.0372
-1182	695.19525
-1201	695.34985
1994	697.9343
8039	702.03406
45	709.01
-1183	716.1368
-1192	724.23596
2079	731.69885
8539	736.8275
153	741.0276
-1191	742.0024
-1197	741.63367
1910	739.8904
8316	736.815
168	735.44977
-1179	734.7772
-1186	737.1647
1844	742.2412
8319	748.77277
225	757.83875
-1201	766.0748
-1204	773.6545
1631	778.66254
8064	779.30365
219	777.26215
-1202	771.0462
-1189	763.80176
1672	756.9392
7983	751.7583
185	752.1121
-1185	757.23785
-1188	769.26074
2002	786.87256
9264	807.31964
373	830.5355
-1194	851.75195
-1204	870.1823
1611	883.50793
8255	889.91864
288	891.70825
-1202	888.0513
-1203	882.41815
1551	876.3363
8084	870.6382
283	868.4702
-1190	868.05383
-1184	870.491
1521	874.0906
8090	876.4011
327	878.09973
-1205	876.2756
-1198	872.5508
1452	867.1666
8101	860.4474
354	855.9789
-1191	852.9452
-1181	853.9377
1454	858.50867
8301	864.7657
421	873.33813
-1197	880.2549
-1194	885.7674
1432	888.6076
8308	887.91705
454	887.1304
-1204	886.2386
-1207	889.4675
1371	898.6023
8395	913.7524
521	936.8002
-1185	963.5148
-1194	991.67554
1204	1015.8185
7988	1029.389
443	1029.8146
-1179	1011.80255
-1192	976.4034
1200	925.57916
8091	863.4328
516	799.58093
-1177	740.4739
-1171	696.4089
1659	673.9461
9776	676.0264
776	706.06195
-1191	758.7095
-1201	829.3059
1108	908.5937
8646	985.1887
739	1051.6832
-1171	1097.9435
-1186	1120.7295
1070	1118.4634
7968	1092.4778
557	1050.6156
-1194	998.54816
-1190	946.59143
1023	902.4747
7894	871.2002
582	858.32684
-1210	861.95483
-1195	880.9919
1023	910.14233
7949	942.0605
632	972.7863
-1189	995.18146
-1197	1007.88684
976	1010.0302
7934	1002.1642
644	989.9524
-1197	975.4715
-1199	964.3569
929	959.0727
7907	959.2548
654	965.79663
-1221	973.3393
-1216	979.2532
893	978.9107
7789	967.8202
651	946.86487
-1192	915.0671
-1205	877.927
848	841.0548
7774	810.1265
693	793.88904
-1201	794.9716
-1193	817.1522
777	858.936
7549	914.5046
653	978.66113
-1195	1040.334
-1194	1092.3516
639	1127.2181
7154	1139.265
613	1129.4637
-1198	1098.0161
-1199	1052.0305
613	998.56866
7350	944.1756
718	897.7488
-1199	861.7212
-1201	840.0299
745	831.9535
7841	833.52124
753	842.9391
-1194	853.53406
-1191	863.3903
662	870.02875
7760	871.5234
820	870.88544
-1184	867.5234
-1196	865.25867
539	865.64343
7345	868.32043
802	875.1955
-1203	882.92017
-1197	891.7017
603	899.94037
7589	905.4989
837	910.5031
-1201	913.3594
-1199	917.0506
476	922.679
7083	929.66656
751	939.5414
-1174	948.20416
-1188	954.57385
482	955.2363
7436	946.06995
906	927.64703
-1172	898.1401
-1184	862.3898
434	825.7029
7409	793.8474
910	776.411
-1196	777.4418
-1187	802.76855
447	852.8606
7313	923.0614
886	1008.3061
-1204	1096.25
-1172	1177.476
448	1241.2687
7509	1277.8904
996	1285.062
-1189	1260.1195
-1192	1208.6031
407	1138.0062
7477	1056.7302
1016	977.0695
-1196	905.5349
-1199	850.3529
393	814.5899
7602	796.6681
1068	795.63196
-1187	803.9841
-1189	817.8554
379	832.0046
7578	841.33386
1121	846.1433
-1194	844.13214
-1192	838.6239
322	831.9907
7401	825.42163
1041	822.96893
-1203	823.1051
-1198	827.2172
313	833.9124
7628	839.88446
1169	845.357
-1190	846.2516
-1192	843.56946
279	837.42786
7849	827.34894
1300	817.2046
-1188	806.3235
-1188	798.0156
239	793.3483
7698	791.2343
1295	793.5615
-1171	796.83606
-1183	801.2712
203	805.2081
7639	805.55536
1326	803.25653
-1187	794.99133
-1197	781.9911
178	764.44434
7720	741.5934
1379	717.0276
-1192	690.1923
-1191	664.9059
171	643.6231
7471	627.3955
1289	620.6525
-1189	622.2567
-1186	634.71423
141	657.55005
7438	687.5078
1359	723.8662
-1184	760.3838
-1212	794.5666
91	822.5857
7201	840.0285
1234	847.4706
-1196	842.5355
-1197	828.52606
91	808.5311
7407	784.90826
1433	763.80695
-1182	746.1247
-1200	735.4706
80	732.35614
7567	734.1042
1526	740.56744
-1194	746.2352
-1182	749.5465
91	748.19305
7753	739.4982
1591	726.2664
-1214	707.9868
-1192	689.2174
24	673.4809
7433	662.3645
1531	660.26044
-1198	665.40204
-1214	678.40643
-139	697.02594
6719	716.5139
1400	735.3603
-1187	747.9843
-1191	753.9288
-110	752.806
6921	744.1822
1482	732.5616
-1186	718.731
-1212	707.43677
-100	701.478
6940	700.9636
1478	708.2485
-1217	719.7639
-1203	734.7382
-161	750.5457
6741	763.1163
1516	772.62354
-1186	775.43335
-1195	773.78326
-161	769.43494
6949	763.13873
1640	759.5546
-1206	758.1776
-1207	761.6439
-174	770.0802
6939	780.69226
1642	793.4268
-1188	803.2907
-1189	809.1735
-192	809.4503
7161	801.90533
1796	789.50775
-1190	772.0371
-1194	753.8739
-238	738.6162
7031	727.85236
1831	726.0712
-1197	732.0482
-1200	746.7131
-292	768.4533
6735	792.8876
1769	818.7439
-1187	840.5018
-1192	856.9385
-235	866.7654
7117	868.17725
1933	864.3881
-1189	855.1058
-1196	844.1053
-280	834.03577
6981	825.262
1981	821.0845
-1183	819.5588
-1200	821.3896
-317	825.5967
6774	829.17065
1943	832.85187
-1191	833.5071
-1179	832.0311
-321	828.862
6725	823.08563
1950	817.6319
-1196	811.1822
-1202	805.4841
-350	800.8604
6636	795.42566
1988	790.5974
-1199	783.6734
-1203	775.27637
-384	765.5055
6454	753.23615
1954	741.40985
-1170	729.2741
-1197	719.45404
-428	713.5353
6309	710.9579
1999	714.06256
-1188	720.4582
-1209	730.67426
-455	743.9463
6204	757.7098
1970	773.0617
-1166	787.35706
-1185	801.73285
-405	816.66144
6544	830.8218
2155	846.24567
-1167	860.4356
-1172	873.3734
-434	883.61743
6469	887.48895
2196	884.8693
-1189	872.0853
-1194	849.6263
-481	818.4481
6196	779.10803
2181	736.8429
-1172	693.9357
-1205	655.8342
-531	626.69495
6100	607.696
2221	601.75073
-1192	606.0552
-1192	619.1704
-481	637.6933
6202	655.8868
2176	671.79175
-1184	680.5218
-1190	681.8007
-495	676.31525
6069	664.4698
2330	651.0799
-1178	637.591
-1201	628.0628
-536	624.8905
6168	627.2641
2410	636.42664
-1191	648.6504
-1198	662.5644
-545	676.0966
6183	685.8622
2473	692.9239
-1179	695.7129
-1188	696.6505
-529	698.13385
6364	700.68494
2717	707.79755
-1152	718.15796
-1202	732.1492
-528	748.3174
6546	762.39014
2867	773.4235
-1176	777.11145
-1206	773.02844
-483	761.5982
6867	742.7395
3109	721.40955
-1176	699.65576
-1204	682.3647
-496	673.2234
6985	672.547
3300	682.7181
-1166	700.58167
-1191	724.20465
-477	750.1671
7104	772.6636
3374	790.2348
-1169	798.66754
-1204	798.05475
-479	789.572
7327	773.5152
3641	754.95795
-1167	735.4381
-1206	718.73315
-461	707.27576
7314	700.0916
3728	698.8595
-1162	700.52985
-1189	703.9844
-469	707.59247
7267	707.842
3714	705.79144
-1158	699.59607
-1191	690.78107
-536	681.0601
6023	670.35754
2584	661.825
-1151	654.32477
-1189	648.87823
-523	645.3428
7243	640.845
3932	636.1763
-1129	628.8103
-1182	619.0956
-478	607.8143
7328	594.27484
4028	582.22925
-1139	572.32855
-1196	567.3646
-513	569.31464
7346	577.0275
4122	592.1368
-1152	611.74945
-1203	634.3119
-469	657.5051
7729	676.5595
4365	691.1051
-1138	697.9847
-1201	697.2542
-576	689.8469
7181	675.27344
4243	657.4791
-1137	637.23865
-1196	617.5281
-571	600.75244
7099	586.3664
4111	576.9122
-1133	570.89246
-1185	568.49475
-593	569.44244
6927	571.0268
4152	574.21045
-1131	577.0071
-1195	579.4509
-632	581.72784
6742	581.9564
4062	581.992
-1134	580.6802
-1193	578.8926
-679	577.5471
6571	575.38885
3935	574.70886
-1107	574.61584
-1189	576.079
-640	579.8031
6796	583.9505
4156	590.04913
-1093	596.3975
-1210	603.0378
-763	610.13184
6284	615.85144
3871	622.15125
-1106	628.2634
-1197	635.62
-816	645.8042
6127	657.9842
3950	674.2967
-1106	693.3319
-1203	714.914
-862	738.387
5674	760.59424
3699	781.6104
-1128	798.8826
-1211	812.53827
-869	823.6315
5748	831.7621
3772	840.2928
-1113	849.71124
-1192	862.00024
-871	878.46564
5803	897.04736
3916	917.8385
-1106	937.3433
-1199	953.54193
-887	965.066
5451	969.46515
3870	968.8727
-1109	964.221
-1194	959.5388
-912	959.62256
5310	966.64087
3605	984.35297
-1096	1011.34204
-1187	1045.2994
-923	1081.5626
5241	1111.4282
3716	1128.596
-1091	1125.044
-1191	1096.9628
-915	1044.5608
5364	970.1221
3739	883.0694
-1104	793.15027
-1216	713.1214
-478	655.2143
7174	626.5244
5164	633.3676
-1051	674.2178
-1197	743.57007
-931	832.2379
5511	926.32355
4041	1014.73584
-1072	1085.7949
-1194	1132.9409
-940	1154.7515
5150	1152.4546
3827	1134.1721
-1094	1107.9962
-1206	1083.8099
-947	1070.4043
5359	1071.2064
3964	1088.6542
-1082	1118.7594
-1192	1155.6389
-942	1192.1355
5421	1218.8633
4018	1231.1798
-1074	1224.8881
-1209	1200.7526
-961	1163.4393
5400	1117.8391
4114	1073.0142
-1072	1035.1324
-1199	1009.75397
-975	1000.09186
5178	1003.79816
3961	1018.4679
-1068	1037.3041
-1186	1053.9501
-987	1063.3541
5055	1060.1405
3901	1044.5199
-1068	1017.2997
-1181	982.8775
-993	947.8357
4959	916.7761
3896	896.10547
-1072	887.8897
-1196	892.7367
-1004	909.1823
4800	931.4262
3838	955.2124
-1056	974.08215
-1181	983.74866
-936	982.5891
5346	969.0044
4986	946.38745
-1006	917.92413
-1190	888.1177
-995	861.9149
4613	840.71497
3610	826.69855
-1074	817.72876
-1185	811.18756
-1044	804.3977
4889	792.53845
4414	774.65674
-1016	749.64905
-1205	719.3627
-1026	688.3729
4840	659.98926
4281	640.2198
-1017	631.7938
-1194	636.2917
-1029	653.65125
5090	678.84937
4708	707.7758
-1007	733.4947
-1198	750.48254
-1044	756.06573
4894	747.725
4615	728.5095
-988	701.8117
-1191	673.2952
-1053	649.7631
4964	634.0606
4683	629.2291
-1004	633.1362
-1206	641.7074
-1055	650.2017
5149	651.0132
4940	640.8263
-987	617.2273
-1197	582.5498
-1054	544.39734
4934	510.83316
4843	493.91293
-970	502.6719
-1202	543.6524
-1066	619.60785
5011	724.5932
4917	849.5716
-961	979.0395
-1192	1096.1392
-1079	1186.0964
4907	1235.0487
4934	1237.4341
-966	1193.008
-1186	1108.8363
-1067	998.4338
4987	876.14514
5151	759.4236
-969	661.5539
-1200	591.92804
-1084	555.8138
4991	550.1232
5219	569.7674
-949	604.90436
-1196	645.3978
-1097	683.81104
4925	712.613
5369	730.1891
-946	736.3513
-1212	733.6844
-1088	727.4938
4940	720.1961
5441	715.6368
-941	714.10583
-1206	714.67883
-1106	716.874
4909	716.99164
5449	714.3162
-934	707.5007
-1167	696.6763
-1081	684.7348
5019	672.2492
5685	662.1217
-899	654.8185
-1206	649.7045
-1139	646.54913
4851	641.55707
5610	633.3776
-911	620.02423
-1203	601.1183
-1126	579.9103
4814	558.6694
5672	543.21533
-887	538.0748
-1187	546.5993
-1120	571.6194
4697	610.3361
5583	659.34186
-901	711.48566
-1196	758.30383
-1129	793.2092
4571	808.72424
5553	802.6813
-877	775.22943
-1178	730.1423
-1126	675.80023
4596	619.47736
5623	570.75684
-881	536.5034
-1202	520.67505
-1141	525.56104
4626	547.49365
5811	582.4677
-831	623.9075
-1192	664.6824
-1140	700.44867
4458	726.1375
5627	741.19836
-889	746.36774
-1199	743.591
-1127	737.4297
4469	729.87744
5666	724.41864
-869	722.4418
-1198	723.62244
-1139	728.3764
4332	733.97626
5721	739.7802
-855	744.6948
-1186	747.7888
-1154	750.6939
4186	752.9973
5553	756.5225
-863	762.1286
-1201	769.4828
-1149	779.4252
3951	789.62317
5334	799.25134
-855	806.6247
-1197	809.8203
-1162	809.2761
4046	803.7945
5698	794.95306
-812	784.4233
-1196	773.47107
-1168	765.15234
4040	759.6411
5723	758.38196
-812	761.4562
-1183	767.52655
-1156	776.5715
3822	785.9725
5412	795.0853
-834	802.5708
-1184	807.34265
-1157	811.04126
3981	812.95337
6051	814.4501
-778	816.5279
-1198	819.1317
-1138	823.8468
3994	829.33844
6180	835.65234
-739	842.34735
-1196	847.8563
-1164	852.64624
3937	854.9693
6098	855.2391
-744	853.96313
-1184	851.09174
-1162	848.8174
3877	846.9467
6063	846.9731
-754	849.794
-1189	854.98444
-1155	863.62695
3606	873.9037
5861	885.25146
-734	896.54675
-1200	905.73254
-1169	912.94415
3713	916.2116
6121	915.71246
-721	912.02997
-1208	905.2029
-1169	897.6244
3819	889.36487
6406	882.0259
-679	876.8734
-1188	873.48773
-1176	872.88904
3633	873.1624
6264	873.5737
-692	873.3031
-1184	870.4695
-1178	865.61957
3323	857.5361
5811	847.0922
-722	835.7028
-1197	824.03986
-1177	814.8745
3554	808.4341
6240	806.04425
-679	808.46857
-1191	814.33307
-1167	824.1936
3503	835.5448
6294	847.0577
-681	857.6648
-1194	865.2462
-1187	870.04456
3439	870.4993
6368	866.98145
-651	860.5359
-1191	851.01544
-1197	840.7861
3264	829.85223
6265	819.48883
-627	811.1135
-1184	804.49756
-1176	801.3848
3284	800.79803
6334	802.70776
-646	806.9018
-1188	811.21735
-1185	815.586
3273	817.2489
6579	814.732
-596	807.3359
-1201	793.3012
-1196	774.1602
3066	750.0286
6323	723.18695
-637	697.0277
-1186	673.704
-1182	657.6694
3286	650.2097
7299	652.55493
-546	665.24725
-1194	685.3209
-1208	711.08923
2554	737.60504
6289	760.5721
-529	776.75244
-1186	782.3992
-1181	777.9101
2793	763.198
6161	741.0297
-569	715.9081
-1207	691.4455
-1198	673.64545
2910	665.19495
6498	668.32385
-537	683.94495
-1182	709.2961
-1198	742.6063
2833	778.6806
6475	813.0903
-528	842.4799
-1212	862.8168
-1206	874.28033
2713	876.25635
6286	870.56995
-519	860.51215
-1186	847.9389
-1187	837.0748
2661	828.8522
6364	823.9568
-522	822.4506
-1187	821.4602
-1199	820.3607
2594	816.10474
6360	807.1637
-509	793.74506
-1191	775.4333
-1197	755.9105
2609	737.3276
6521	723.08875
-486	717.04645
-1187	720.091
-1204	734.5149
2563	758.4295
6569	789.1501
-487	823.47284
-1203	855.4281
-1197	882.0449
2469	898.68134
6435	902.89465
-467	894.7678
-1202	874.1287
-1198	845.2942
2454	811.2149
6549	776.0454
-486	744.5995
-1189	718.7133
-1196	702.0478
2431	694.4992
6616	695.4712
-444	704.39197
-1212	717.9102
-1192	735.45654
2416	754.2019
6721	772.3448
-448	789.5814
-1216	803.635
-1202	815.4325
2369	823.62823
6899	827.5504
-367	827.8063
-1177	822.8193
-1191	814.38574
2219	802.44714
6615	788.1137
-409	774.109
-1201	761.0894
-1187	752.71265
2144	749.79565
6614	752.8014
-364	762.24585
-1191	775.10944
-1180	790.4213
2118	804.3728
6540	813.78503
-385	817.4109
-1212	812.9645
-1214	802.8001
2048	788.54803
6484	773.54254
-392	762.8626
-1201	758.794
-1197	765.4724
2029	782.7917
6624	808.81824
-341	840.8022
-1208	871.9062
-1199	897.62054
2003	911.60895
6664	909.45044
-340	890.58746
-1216	854.7525
-1187	807.3606
1953	753.78845
6659	700.9018
-315	656.9287
-1206	626.12823
-1198	613.53845
1909	619.0759
6646	640.0892
-277	672.99365
-1191	710.0858
-1191	746.4138
904	775.80273
6330	793.57996
-79	799.10315
-1186	791.6283
-1194	775.30695
1953	753.4393
6997	730.042
-222	710.3937
-1179	695.6652
-1179	688.7421
2043	688.51416
7127	692.752
-214	700.17303
-1189	706.3036
-1184	710.5257
2103	710.814
7394	706.55475
-179	700.1705
-1199	691.8101
-1196	685.34076
2071	682.1015
7503	682.9474
-126	689.7245
-1216	700.034
-1209	713.85376
2079	728.1818
7540	739.97876
-128	748.61584
-1202	750.94806
-1200	748.1144
2036	740.05566
7394	727.78815
-168	714.95245
-1216	702.1084
-1207	692.93317
2051	688.1104
7561	687.5388
-131	692.24677
-1206	699.0809
-1191	707.9116
2078	716.1364
7547	721.5956
-137	724.9296
-1212	724.236
-1203	721.97253
2087	718.9044
7686	716.17413
-99	717.0856
-1198	720.96564
-1193	729.6104
1446	741.733
7286	754.9544
24	768.5448
-1182	778.30853
-1183	783.79407
2154	782.99585
8023	775.01306
-22	762.5089
-1196	745.4757
-1191	728.03217
2121	712.00366
7961	698.7622
1	691.196
-1193	687.4005
-1210	687.96295
2043	690.312
7824	691.5291
9	691.32996
-1193	686.4762
-1202	678.30237
1902	666.9907
7635	653.5879
26	642.0178
-1197	632.5363
-1206	628.3467
1862	629.3642
7625	634.27185
3	643.15314
-1207	651.7355
-1196	659.36536
1808	663.64197
7576	663.0488
25	659.7916
-1181	653.50494
-1189	648.1564
1725	645.5775
7681	646.8164
78	654.28656
-1204	664.78705
-1200	677.6197
1668	688.5432
7718	692.60297
119	688.19604
-1191	671.13745
-1187	642.9763
1601	605.5313
7493	562.51117
67	521.7482
-1189	487.78058
-1186	467.9493
1829	465.65125
8106	481.45816
166	515.95074
-1181	563.0819
-1196	618.6267
1509	675.3885
7561	726.1983
158	768.0046
-1192	796.06586
-1195	811.7152
1508	816.40155
7705	812.7886
189	807.08435
-1196	801.4012
-1193	800.38043
1441	805.0799
7799	814.43555
243	828.8834
-1198	843.9911
-1187	858.6659
1544	870.10474
8088	875.86346
297	877.6
-1191	873.86664
-1192	867.5189
1404	859.6449
7721	850.728
284	843.7344
-1189	837.066
-1201	832.3014
1381	828.6757
7849	824.91644
319	823.03186
-1207	821.3212
-1196	822.10724
1408	825.7519
8069	831.8025
378	842.38855
-1186	854.6482
-1199	868.4519
1254	880.9327
7763	888.2775
369	889.95917
-1201	882.1852
-1208	866.19495
1084	842.8738
7331	814.1391
339	786.08215
-1186	761.43036
-1189	746.3885
1378	744.0695
8173	755.1935
438	781.61316
-1201	818.66943
-1195	863.6589
1110	910.7227
7581	953.05975
418	987.6095
-1182	1008.5593
-1182	1015.8968
1119	1009.72906
7702	991.37476
456	966.71533
-1185	938.08105
-1182	911.3347
1069	889.5165
7663	873.51624
498	865.83044
-1189	863.25024
-1201	865.1264
1027	868.3449
7673	869.0812
523	867.3938
-1219	860.2143
-1206	849.315
1031	835.7087
7919	820.3623
621	807.9223
-1210	798.5682
-1213	795.3652
978	798.4562
7575	806.0042
538	818.32825
-1199	830.7846
-1187	842.1349
928	849.57776
7730	850.2141
611	845.6384
-1186	834.451
-1182	820.11523
829	805.1169
7459	791.3726
585	783.8217
-1190	782.3893
-1190	789.45844
788	804.2135
7538	823.576
648	846.7852
-1183	868.3312
-1201	886.40875
721	898.0688
7398	900.3598
629	895.31915
-1195	881.65283
-1194	862.7338
653	841.0743
7413	818.38074
711	799.45197
-1203	784.2248
-1189	775.6009
714	773.83575
7445	777.4789
702	787.81085
-1194	801.46497
-1198	818.72076
638	837.9763
7270	856.6462
673	875.3484
-1186	890.3397
-1184	901.825
613	908.2804
7321	907.5015
763	901.1456
-1163	887.33295
-1192	869.1393
593	848.7635
7268	828.1321
749	812.7284
-1179	803.3924
-1189	804.0177
609	815.1493
7380	834.4637
791	861.1019
-1198	888.37787
-1194	912.72833
590	928.90265
7590	931.6677
886	921.172
-1192	895.58386
-1187	859.56793
578	818.0572
7782	776.0631
1005	742.23096
-1182	719.69055
-1184	713.4364
486	723.969
7359	747.8628
919	782.63086
-1192	819.8944
-1189	854.8818
445	881.81793
7273	895.536
908	896.8215
-1178	884.4529
-1176	863.19916
466	837.55475
7470	811.2153
1015	790.6505
-1196	776.44836
-1196	771.4419
443	774.7484
7507	782.80066
1031	794.6217
-1197	804.7154
-1199	812.3048
406	815.9634
7441	814.4003
1034	810.92316
-1192	805.19037
-1172	801.04047
402	800.18005
7607	802.208
1129	809.20776
-1200	817.82043
-1199	827.8377
329	837.0946
7384	842.3686
1099	844.5108
-1187	840.8606
-1201	833.5515
281	823.77905
7208	811.90247
1122	801.70074
-1185	792.3099
-1195	786.0996
297	783.08075
7351	781.34827
1153	782.076
-1194	781.83813
-1191	781.2085
263	779.4618
7319	774.97864
1167	770.1011
-1212	763.02985
-1216	756.0051
203	749.6377
7387	742.98895
1298	738.4707
-1184	733.90656
-1184	730.7291
214	728.7631
7319	726.543
1264	726.2104
-1204	725.5076
-1186	726.21136
253	728.3547
7702	730.33
1444	734.0457
-1209	736.69305
-1192	739.0412
201	740.3454
7368	738.5968
1341	735.71576
-1198	729.56647
-1179	722.2628
153	714.7681
7188	706.81555
1339	701.694
-1199	697.96765
-1203	697.6128
103	700.5697
7041	704.8403
1289	711.5392
-1181	717.07605
-1200	721.91626
98	725.28827
7116	725.4738
1328	724.93066
-1191	722.2534
-1200	720.26825
42	720.54956
6988	723.1244
1303	731.18066
-1204	742.8207
-1202	759.23364
-27	779.389
6703	800.13043
1247	821.27905
-1194	838.0399
-1192	849.74963
-7	854.79333
6747	850.8822
1255	840.1709
-1189	821.3915
-1184	797.983
-60	772.67755
6618	747.0488
1267	726.05255
-1192	709.9008
-1186	701.58417
-108	701.77924
6351	708.6482
1185	722.6454
-1196	739.05896
-1203	756.7625
-117	773.2424
6682	784.90125
1376	792.4696
-1187	793.3496
-1195	789.6325
-131	782.9917
6788	774.0765
1453	767.24774
-1192	762.18896
-1198	761.6079
-111	766.0332
6749	773.46796
1474	784.6339
-1186	795.3317
-1204	804.8246
-152	811.348
6802	812.0911
1506	808.64624
-1211	799.0926
-1206	785.921
-161	770.985
6644	754.79114
1488	741.32324
-1202	729.77216
-1192	722.47986
-196	719.94305
6482	720.4331
1476	725.1976
-1189	730.9474
-1191	737.882
-207	745.1442
6386	750.5318
1468	755.5994
-1196	757.88885
-1188	758.8187
-224	758.84515
6330	756.9483
1438	755.6465
-1173	753.2653
-1193	751.69257
-257	751.7327
6196	752.6016
1441	756.86145
-1204	762.6959
-1186	771.5638
-292	783.53485
6126	796.7051
1536	812.1714
-1197	826.6038
-1179	839.9039
-289	850.94995
6158	857.1784
1569	859.7996
-1197	856.33575
-1206	848.2097
-314	836.34534
6236	820.37494
1667	803.5846
-1202	785.1971
-1214	767.6955
-339	752.3625
6229	738.52435
1716	728.6457
-1202	720.86725
-1209	716.3706
-394	715.2131
6023	715.63007
1664	719.0672
-1199	722.7645
-1187	727.0539
-389	731.21796
5972	732.811
1685	732.75934
-1189	728.20795
-1193	719.907
-370	708.2221
6426	692.352
1955	675.5997
-1179	657.62885
-1190	641.49677
-397	629.2658
6179	620.7973
1904	618.66064
-1191	620.4474
-1209	626.1354
-422	634.10956
6222	640.5623
1954	645.20325
-1191	644.04456
-1202	637.2704
-467	625.31274
5896	607.94885
1857	589.24066
-1184	569.9006
-1201	553.9303
-511	544.20306
5093	541.2171
1224	547.42615
-1193	560.1523
-1204	578.96173
-472	601.83167
6067	624.62164
2031	646.7543
-1167	664.20996
-1176	676.9109
-446	684.97406
6194	687.51825
2143	687.75995
-1188	685.2422
-1187	682.573
-479	681.3314
6084	680.7229
2153	682.7877
-1178	685.1104
-1191	687.9655
-489	690.7932
6200	691.216
2268	690.6084
-1183	686.7146
-1192	680.7178
-533	673.4646
6086	664.0878
2342	655.2253
-1193	645.6402
-1211	636.90027
-519	629.79395
6181	623.03046
2451	618.6161
-1178	614.67017
-1200	611.9911
-534	610.73224
6111	609.03455
2441	608.37964
-1189	606.4039
-1197	603.5869
-527	599.9424
6256	593.7045
2629	586.8653
-1176	578.0034
-1212	568.7826
-563	560.5876
6301	552.88086
2760	548.5236
-1159	546.31903
-1191	547.3205
-558	551.6071
5676	556.9017
1549	564.05444
-1179	569.7134
-1199	573.9204
-587	576.64764
6214	576.48895
2943	576.1351
-1161	575.0337
-1198	575.4925
-581	579.14404
6316	584.86584
2983	594.11456
-1164	603.78235
-1192	612.58417
-575	618.5212
6467	617.71387
3173	610.64923
-1154	595.61993
-1198	574.91046
-587	551.9631
6259	529.1993
3139	512.78
-1152	504.91992
-1207	508.84048
-631	525.4705
6174	551.49036
3216	584.96826
-1180	619.28876
-1204	649.8223
-640	672.40094
6231	682.48663
3296	681.3038
-1144	669.25037
-1197	651.0805
-642	632.4662
6299	616.9379
3347	610.1895
-1148	612.39307
-1194	623.0494
-651	638.7412
6369	651.96594
3503	657.93964
-1138	649.45306
-1189	623.5826
-677	580.43463
6251	521.6405
3544	455.5241
-1141	389.59018
-1184	334.05035
-665	297.93588
5966	285.59332
3077	300.93326
-1142	340.55002
-1204	399.3234
-721	469.26978
6058	539.2306
3455	602.0059
-1147	649.43677
-1196	678.5426
-753	689.7584
5734	684.59955
3415	669.9516
-1152	650.5533
-1199	632.6985
-773	621.0566
5886	615.9903
3479	618.8894
-1151	626.34534
-1202	635.98663
-800	645.4135
5772	650.9442
3523	653.44165
-1141	652.1643
-1197	649.3887
-826	647.7848
5578	647.58606
3439	651.21454
-1129	656.9603
-1203	663.8943
-831	670.42914
5662	672.9014
3507	671.6115
-1124	665.37933
-1193	656.4198
-835	648.3175
5938	643.12463
3733	645.86084
-1127	657.43054
-1198	678.3278
-854	706.6701
5598	736.18616
3609	762.21906
-1127	777.10614
-1201	775.99774
-869	756.50415
5546	717.40515
3622	664.06067
-1101	602.2252
-1186	541.2217
-577	490.83502
6450	457.44223
4261	448.0841
-1106	463.55505
-1202	502.1334
-874	558.9337
5458	624.6147
3641	692.0028
-1096	752.00397
-1193	799.046
-889	830.5735
5396	844.9483
3638	846.19946
-1102	837.53845
-1192	824.37683
-911	811.92584
5332	801.93555
3647	797.366
-1111	796.82837
-1200	799.06976
-925	802.4426
5240	803.23975
3669	801.42377
-1077	795.6062
-1175	786.9714
-928	777.91815
5190	769.11456
3669	763.9826
-1101	762.8564
-1202	766.4566
-919	774.81995
5319	785.0506
3753	796.8821
-1092	807.55634
-1192	816.3026
-922	823.4807
5197	828.01825
3762	832.29913
-1086	836.4234
-1186	841.56274
-922	848.66034
5151	855.64856
3678	862.5679
-1082	866.42365
-1204	865.5211
-947	859.0151
4993	844.7904
3606	824.74805
-1062	799.63324
-1177	772.4484
-926	747.1353
5309	725.331
4180	710.75116
-1057	703.9942
-1203	705.0735
-959	712.90173
5055	723.32684
3837	734.5409
-1071	742.59314
-1205	745.5419
-976	743.2302
4935	734.77045
3846	723.36444
-1067	710.7814
-1190	700.2161
-988	694.95087
4899	694.9531
3813	701.48096
-1064	711.97266
-1200	723.7647
-1003	734.1269
4756	738.2733
3639	735.11743
-1059	722.8139
-1191	702.7139
-996	678.6877
4762	653.82355
3821	634.53955
-1050	624.6244
-1215	627.4996
-1018	645.0368
4829	674.19586
3894	712.1244
-1041	751.811
-1195	786.43884
-1005	810.3868
4746	817.5418
3905	807.2945
-1049	780.2488
-1194	741.31995
-1024	698.79
4791	659.9944
4059	634.72894
-1019	628.799
-1189	645.7785
-1036	686.12396
4524	743.9796
3983	812.693
-1039	881.452
-1205	940.00006
-1031	980.3902
4724	995.27295
4119	983.8029
-1027	947.3507
-1204	892.0375
-1032	826.8838
4666	759.8722
4188	700.9395
-996	655.9202
-1197	628.3138
-1055	619.259
4477	624.4806
3991	640.0809
-1015	659.13995
-1192	675.919
-1053	687.1507
4600	689.30615
4289	683.72504
-1016	671.7082
-1196	656.4997
-1036	642.7808
4681	632.222
4444	627.82874
-997	629.2473
-1186	635.29144
-1066	644.9985
4502	654.6752
4316	663.43713
-998	669.3752
-1200	672.1238
-1104	673.49066
4563	673.36554
4408	674.22675
-1012	676.2531
-1187	679.26746
-1063	683.44006
4596	685.7378
4566	685.3631
-993	680.0677
-1197	668.9478
-1090	653.71265
4548	634.98535
4653	617.0234
-964	602.9249
-1191	595.97644
-1084	599.8292
4686	613.9157
4855	638.18713
-952	669.035
-1186	701.6554
-1097	732.0755
4588	754.11035
4851	765.26666
-966	763.48114
-1192	749.1842
-1116	726.137
4481	697.1878
5013	668.1767
-934	643.2062
-1179	625.25336
-1101	616.95856
4501	616.4342
4938	622.3897
-957	631.0339
-1194	638.17206
-1097	641.6532
4535	638.0423
4989	627.9522
-962	612.3012
-1205	593.34973
-1112	575.6098
4638	560.9945
5243	553.0469
-919	552.761
-1189	559.43195
-1114	572.53314
4557	587.981
5216	603.66
-937	616.5894
-1212	624.42633
-1120	627.6427
4483	625.50116
5138	620.6464
-927	615.0918
-1191	610.6494
-1125	610.15063
4353	612.9355
5068	619.4924
-937	627.9787
-1215	635.771
-1145	641.77924
4348	642.8068
5251	638.8331
-916	629.99554
-1184	617.32043
-1127	604.4654
4191	593.026
5109	586.5659
-899	586.7682
-1190	593.73346
-1146	607.7526
4246	625.2632
5231	643.8743
-897	659.6479
-1207	668.8238
-1142	670.49536
3983	662.6672
5057	647.08417
-885	626.0997
-1184	602.84595
-1137	582.6374
3969	568.07446
5060	562.8021
-886	567.99567
-1181	582.65546
-1153	605.81067
3783	632.78314
4906	660.20123
-878	683.8245
-1184	699.8085
-1142	707.3624
3837	704.90326
5174	694.3907
-872	678.323
-1207	659.4311
-1165	642.3422
3720	628.8057
5098	621.47266
-871	620.98865
-1194	626.1685
-1152	636.5724
3560	648.8081
5074	661.1837
-852	671.68134
-1187	678.5388
-1164	682.7434
3440	683.8606
4929	683.90045
-847	684.4759
-1199	686.5496
-1171	692.39496
3253	701.24023
4695	713.1929
-864	726.89197
-1199	740.0815
-1157	752.1657
3285	760.5844
4811	765.05695
-844	765.4314
-1197	761.7918
-1173	756.56696
3202	750.26855
4831	745.0356
-831	741.9703
-1194	740.9503
-1176	743.1593
3289	746.7724
5085	751.17834
-802	755.1551
-1196	756.99805
-1174	757.37054
3206	755.29663
4902	752.06085
-821	748.923
-1207	746.6641
-1167	747.8662
3226	752.40735
5046	761.1132
-801	773.60443
-1179	788.02264
-1158	803.89417
3124	818.25934
4931	829.80914
-817	837.21313
-1198	839.03894
-1168	836.40515
3060	828.9289
4880	818.286
-786	806.02844
-1187	792.95197
-1169	781.54486
3073	771.6821
5025	764.28253
-776	759.46155
-1188	756.17084
-1193	755.12427
2923	754.764
4961	755.03894
-776	755.74005
-1181	755.93494
-1157	756.77716
2958	757.2462
5064	757.7376
-777	758.3249
-1201	758.0642
-1190	758.01465
2818	757.00916
5094	755.2515
-757	752.95184
-1197	749.33356
-1183	745.7724
2766	741.48334
4986	736.97644
-778	732.4776
-1188	727.0865
-1167	721.8826
2669	715.69055
4961	708.6163
-754	700.752
-1194	691.3383
-1181	681.9858
2653	672.3437
5041	663.44476
-735	656.3301
-1193	650.84564
-1193	648.66943
2453	649.0301
4767	651.9746
-779	657.0828
-1194	662.59326
-1180	668.83514
2493	673.9887
4968	677.5876
-736	679.4115
-1199	678.39056
-1184	676.00684
2561	671.7033
5164	666.1573
-712	660.0991
-1194	652.8571
-1204	645.8378
2396	638.0966
5041	629.6786
-712	620.6451
-1197	609.8732
-1194	598.66156
2440	586.27527
5219	573.25323
-690	560.4522
-1186	547.4592
-1195	536.26
2224	526.59143
5031	519.07227
-677	514.3331
-1205	511.49973
-1192	511.94327
2293	514.7016
5089	519.73376
-664	527.01654
-1204	535.0653
-1213	544.77814
1563	554.8895
4861	564.7287
-566	573.9437
-1213	580.90765
-1200	586.5777
2308	589.8962
5342	591.05914
-626	590.8992
-1198	588.8438
-1196	587.0837
2198	585.5414
5154	584.9203
-652	585.90814
-1198	587.27496
-1193	589.9948
2120	592.528
5090	594.11053
-654	594.3222
-1201	591.4766
-1196	586.90454
2153	580.18207
5284	572.2438
-628	564.69
-1192	557.5726
-1196	553.4927
2133	552.3544
5488	554.30835
-571	559.37177
-1183	565.2704
-1190	572.1205
2046	577.7282
5371	580.93317
-579	581.5793
-1213	578.465
-1194	573.73267
1947	567.8436
5236	562.2728
-576	558.90674
-1184	557.5162
-1184	559.8786
1934	564.82184
5446	571.1632
-555	577.8873
-1193	581.9685
-1201	583.4075
1828	580.57697
5223	573.3297
-579	562.9919
-1181	549.79456
-1191	537.128
1329	526.38983
5424	518.9505
-432	516.38477
-1189	517.45593
-1190	522.7306
1824	529.8556
5399	536.6285
-533	541.6139
-1202	541.7843
-1205	537.55255
1733	528.1291
5374	514.20996
-521	498.09738
-1196	480.61594
-1200	465.4489
1722	453.9325
5461	447.37256
-501	447.26346
-1186	452.2444
-1185	462.8834
1611	477.13013
5323	493.05328
-510	509.54013
-1192	523.5226
-1199	535.0651
1674	542.57434
5544	545.41925
-485	544.5499
-1203	539.2107
-1199	531.8558
1668	523.139
5723	514.22424
-440	507.44962
-1204	502.57535
-1196	501.73947
1647	504.42133
5827	509.73676
-396	517.4241
-1183	524.29596
-1192	529.60486
1673	530.59326
5911	525.19946
-394	513.5347
-1198	494.35507
-1191	470.25934
1631	442.98438
5963	415.3436
-359	391.97888
-1190	374.9052
-1181	368.11472
1276	372.49805
6409	387.3621
-227	412.3342
-1203	443.03137
-1209	476.89185
1759	509.0236
6614	535.0309
-296	553.1964
-1194	560.33057
-1202	557.6837
1618	545.9701
6066	527.3196
-363	506.18042
-1189	484.65604
-1195	467.3537
1481	456.20343
5803	452.30157
-372	457.08273
-1204	468.36194
-1196	485.8984
1414	506.87466
5639	528.3678
-399	548.9326
-1190	564.9386
-1203	576.0948
1579	580.806
6442	578.32135
-276	570.4992
-1197	557.1172
-1199	541.3104
1729	524.562
6776	508.50406
-244	496.51294
-1204	488.49216
-1194	486.48526
1895	489.57452
7300	495.96558
-153	505.3365
-1184	513.73083
-1182	520.05994
1854	521.59595
7190	516.4148
-165	505.85553
-1206	489.2433
-1202	469.89026
1724	449.79608
6528	431.29218
-274	418.361
-1161	411.18338
-1169	411.85434
1623	419.28082
7294	431.13284
-106	446.76642
-1211	461.98685
-1201	475.76782
1804	485.716
7203	490.30453
-129	491.2998
-1197	487.99908
-1185	483.14343
1797	477.59863
7162	471.92404
-136	468.4869
-1190	465.72797
-1192	464.5467
1756	463.53384
7153	461.1828
-107	458.64728
-1199	454.28055
-1191	449.8647
1612	445.72488
6590	442.38644
-194	442.44455
-1177	444.963
-1189	451.41266
1503	460.73743
6087	471.4118
-315	483.55057
-1195	494.2327
-1199	503.8957
1561	511.52582
6343	516.69574
-251	521.5438
-1193	525.298
-1171	530.1515
1648	536.0312
6558	542.3266
-225	550.02704
-1187	556.3724
-1207	561.5327
1643	563.8416
6701	562.073
-184	558.06665
-1200	551.12146
-1199	544.30066
1321	539.271
6290	537.5596
-204	542.4791
-1186	553.29956
-1198	571.2558
1436	594.59064
6448	620.3734
-187	647.56226
-1185	671.3008
-1189	689.9856
1319	700.8897
5970	702.03345
-231	694.44495
-1185	676.8769
-1194	651.98395
1296	621.09503
6000	585.75305
-241	549.7455
-1214	513.6545
-1220	481.00955
1247	453.3034
5956	431.62085
-230	418.80008
-1186	413.99106
-1199	418.78458
1208	432.282
6004	452.73422
-204	479.9869
-1192	510.24362
-1196	542.76404
1064	575.2648
5564	605.8702
-313	635.496
-1207	662.58746
-1185	689.4252
988	716.7596
5456	744.97797
-256	775.87195
-1191	807.09686
-1181	838.35956
923	866.6567
5396	888.17267
-234	901.1697
-1204	901.4937
-1206	889.4231
844	865.3116
5326	831.1579
-249	792.6707
-1194	753.3694
-1188	720.1594
699	697.50903
4913	688.05566
-298	694.21075
-1187	713.0122
-1186	742.4887
747	777.5278
5324	812.05786
-184	842.76184
-1203	864.0391
-1211	875.36523
765	876.6078
5511	869.06995
-154	857.5513
-1195	844.026
-1182	833.2608
853	827.2397
5799	825.991
-90	830.2665
-1201	835.9687
-1191	841.2565
773	842.40063
5801	835.6957
-41	820.92633
-1200	795.84534
-1197	762.88226
766	724.0803
5813	681.8716
-41	641.50867
-1183	604.58856
-1176	575.2224
715	554.9791
5733	543.9099
-21	543.5276
-1189	551.0562
-1202	566.3653
711	587.29596
5845	610.9982
9	637.1129
-1176	661.7448
-1179	684.4483
721	703.2993
6065	716.0682
88	723.58856
-1179	723.5175
-1185	717.49774
670	706.1542
6091	690.0787
128	672.97186
-1201	654.9949
-1204	639.5436
646	627.88477
5981	619.94147
106	617.43365
-1206	617.50977
-1202	620.031
554	622.8231
5956	622.95636
154	620.73596
-1186	613.02057
-1191	601.17847
518	585.7748
5929	567.37463
190	549.66724
-1177	532.5742
-1193	519.47217
464	511.45438
5755	508.1707
171	511.06195
-1201	517.16907
-1202	526.37946
446	536.6163
5836	545.01105
223	551.5548
-1195	552.98914
-1217	549.8445
319	541.66595
5291	527.86273
83	510.77866
-1186	489.6865
-1192	467.3417
109	445.15338
4289	423.9937
-115	406.59323
-1190	391.99216
-1187	382.3766
284	377.74838
5411	376.81924
186	380.25424
-1197	384.49536
-1192	389.384
351	392.96582
5990	392.62686
382	388.92865
-1180	379.02325
-1201	364.7234
420	346.78366
6078	325.77545
338	305.50674
-1201	285.89136
-1189	270.6008
308	261.15698
5608	257.65695
255	262.02338
-1182	271.74185
-1180	287.2491
266	306.90146
5629	328.06918
321	350.90823
-1193	371.7699
-1184	391.34497
204	409.06546
5438	423.93845
277	437.8199
-1203	448.8629
-1206	459.0854
158	468.69785
5341	476.90872
303	485.23828
-1201	491.25244
-1190	496.2549
153	499.88895
5549	501.04266
366	501.4163
-1182	499.03735
-1186	495.9127
54	492.5268
5360	488.46817
412	485.82086
-1206	482.9367
-1202	481.51593
100	481.56708
5506	482.12027
437	484.78595
-1199	487.70786
-1186	492.3828
96	498.8838
5528	506.41068
482	516.68555
-1178	527.6613
-1196	540.37823
38	554.01733
5419	566.5328
449	578.2389
-1191	585.82513
-1205	589.6592
11	588.9999
5516	582.81134
531	573.39935
-1197	560.1094
-1201	546.29486
-2	533.96277
5371	523.97705
489	519.30444
-1194	518.45703
-1193	522.3341
-46	529.4779
5297	536.823
552	543.634
-1197	545.8587
-1196	543.52875
-37	536.2565
5426	523.84564
598	509.8106
-1185	494.9218
-1186	483.24686
-53	477.00638
5361	476.38184
585	482.70306
-1192	492.23557
-1201	502.98257
-29	510.6376
5694	509.65314
690	497.92334
-1196	471.24283
-1212	430.57443
-47	377.8161
5614	316.0246
739	252.7381
-1201	192.90399
-1206	144.57538
-83	113.48097
5603	102.45455
753	114.773766
-1196	147.76233
-1196	199.33246
-134	264.28156
5261	335.26492
637	407.33682
-1199	472.75732
-1198	527.86554
-169	569.42255
5228	594.9487
678	606.3924
-1198	603.86523
-1205	591.3604
-134	572.24475
5512	548.8622
779	526.05835
-1199	504.6643
-1201	487.48328
-194	475.25464
5329	466.73135
746	462.7168
-1198	460.27252
-1194	458.83066
-211	456.788
5358	451.7473
791	444.67706
-1196	433.86124
-1204	421.06506
-222	407.5442
5301	393.80734
774	383.24512
-1202	375.59344
-1192	372.91336
-287	375.40045
5039	381.31836
747	390.89648
-1193	400.49994
-1193	409.35498
-273	415.81512
4964	417.749
710	416.55865
-1196	411.13168
-1186	404.10336
-321	397.45276
4855	392.07584
687	391.1245
-1192	393.6164
-1185	400.63327
-382	411.23184
4599	422.6581
668	434.36316
-1177	442.60287
-1189	447.09732
-376	447.31165
4612	442.56296
684	435.57053
-1200	426.29416
-1197	417.8418
-387	411.973
4641	408.7062
690	409.82556
-1192	412.82678
-1197	417.61316
-373	422.64224
4906	425.2282
762	425.87265
-1199	422.22534
-1188	415.8006
-359	407.74896
4966	398.44504
795	391.1437
-1166	385.33316
-1210	383.02112
-190	384.42892
6083	387.72894
1089	393.9371
-1189	399.99026
-1187	405.91785
-350	411.09525
4983	414.1436
818	417.0191
-1192	418.52875
-1174	420.65768
-393	424.38138
4818	429.18082
824	436.89697
-1207	445.5198
-1197	455.5607
-392	466.39417
5034	476.08026
958	485.6688
-1196	492.93265
-1191	498.72885
-382	503.13162
5158	504.9003
1033	505.5935
-1196	503.27286
-1209	498.49307
-394	490.91965
5039	479.08063
979	464.69293
-1186	446.96616
-1185	427.8742
-386	409.17752
5062	391.71112
1004	379.20642
-1204	371.64227
-1201	370.94226
-427	377.2729
4970	388.488
1030	404.4578
-1186	420.9535
-1199	436.4881
-424	449.02637
5130	455.86206
1126	458.16672
-1192	454.57236
-1203	447.4775
-447	438.94492
5091	429.76614
1239	423.33505
-1191	419.08582
-1192	418.2806
-339	420.54147
5987	423.3104
1502	427.0167
-1174	428.48062
-1184	427.45596
-475	423.4998
5029	415.37625
1232	405.3203
-1179	392.68008
-1198	379.54498
-492	367.22415
4595	355.48987
631	346.5541
-1186	338.80862
-1191	333.0256
-478	328.98105
5251	324.86124
1306	321.8684
-1212	317.8133
-1204	313.1266
-503	307.60638
5317	299.61404
1431	290.7219
-1181	279.34692
-1174	266.60632
-469	253.36809
5496	239.30528
1483	227.55339
-1176	217.94885
-1196	212.69424
-516	212.94887
5328	217.62466
1446	227.86873
-1164	240.56065
-1190	254.4014
-519	267.19632
5356	275.43488
1476	279.5183
-1186	277.72473
-1197	272.24805
-535	266.1024
5332	261.74704
1451	265.09122
-1197	278.08044
-1181	303.71802
-508	342.38037
5409	390.4485
1508	445.18207
-1176	498.7798
-1179	545.10614
-524	577.9299
5627	590.9717
1969	583.67554
-1174	555.3232
-1192	510.3293
-677	455.10117
4633	395.91483
1598	341.94028
-1179	298.215
-1214	269.92123
-559	259.0631
5328	263.28543
1833	281.00406
-1149	305.99014
-1187	333.77756
-631	360.00082
4980	380.024
1753	393.84793
-1181	399.98367
-1197	400.6048
-596	398.1403
5183	393.44254
1903	389.85028
-1176	386.71283
-1201	384.7348
-592	383.57092
5367	380.93988
2040	377.84976
-1171	372.67975
-1193	366.67975
-612	361.30124
5303	356.54218
2063	355.2527
-1178	356.65485
-1206	361.1276
-624	367.80826
5075	373.5846
1978	378.15433
-1192	378.72348
-1185	375.53308
-661	369.906
5236	362.86777
2189	359.50363
-1190	362.23788
-1198	374.99457
-667	399.96426
5235	435.4702
2298	480.39224
-1171	528.43634
-1201	573.6382
-634	609.2176
5487	627.32825
2429	625.14087
-1162	599.6707
-1188	553.078
-691	490.41513
5047	417.4732
2314	344.2933
-1157	278.14194
-1191	226.93423
-668	196.09268
5156	186.4496
2391	198.81448
-1192	228.6629
-1207	271.3367
-681	321.10886
5275	370.5864
2545	416.24442
-1164	453.35052
-1189	480.516
-743	497.84753
5109	505.0428
2606	505.5954
-1172	500.88226
-1192	493.83554
-719	486.9477
5218	480.43246
2655	476.82327
-1155	475.5306
-1188	476.7961
-752	480.28488
5139	483.53088
2664	486.73434
-1164	487.61783
-1203	485.52194
-752	480.19565
5146	470.32538
2761	458.30377
-1147	444.91745
-1204	432.96967
-766	425.4659
5223	423.40854
2808	429.97763
-1156	444.58554
-1206	466.60944
-764	493.81482
5021	520.9798
2683	545.10205
-1147	560.79504
-1203	565.211
-809	557.1105
5157	535.61487
2889	504.9556
-1146	468.29593
-1194	431.75937
-806	401.32318
4920	380.10376
2789	372.13214
-1149	376.65808
-1175	392.04214
-821	414.71658
4877	438.2853
2792	459.14487
-1142	472.38275
-1199	476.32913
-822	471.567
4849	459.06918
2769	444.19186
-1145	430.55347
-1195	422.90363
-824	424.73856
4958	435.79703
2846	456.4968
-1148	482.8501
-1197	511.06436
-836	537.0078
4818	555.2992
2807	564.6568
-1150	563.2193
-1198	552.451
-855	535.4185
4831	514.3091
2894	494.21967
-1124	477.29092
-1193	465.94986
-870	461.3309
4717	461.49896
2774	466.3677
-1124	473.13553
-1194	480.60797
-886	488.30707
4588	494.79544
2716	502.06042
-1125	510.10287
-1200	520.3497
-892	533.8293
4599	548.9271
2808	565.7622
-1124	581.31964
-1192	593.53705
-920	600.6828
4505	599.89105
2821	592.11957
-1122	577.05743
-1197	557.3722
-916	536.74146
4779	517.1896
3303	503.0896
-1125	495.7682
-1209	496.3536
-922	504.77756
4591	517.849
2924	534.147
-1128	549.84546
-1195	562.7554
-916	571.5158
4482	574.23596
2913	572.8405
-1122	567.88696
-1196	561.8088
-929	557.2569
4469	554.5258
2940	555.7229
-1114	559.67596
-1172	565.7061
-935	572.8723
4227	578.2699
2836	581.84845
-1125	581.87744
-1187	578.88666
-951	574.4452
4298	568.8078
2926	564.96454
-1112	563.3962
-1204	565.3127
-944	571.34344
4494	579.3434
3139	589.0705
-1096	597.6502
-1207	603.5214
-956	605.87683
4197	602.85065
2878	596.03375
-1102	585.64404
-1191	573.9132
-966	563.6249
4216	555.5234
2921	552.289
-1091	553.4331
-1184	558.8075
-976	567.62573
4183	576.5785
2977	584.6474
-1105	588.7594
-1201	587.73175
-970	581.8244
4174	570.34753
3006	555.9971
-1082	540.1745
-1191	525.377
-986	514.4254
4102	507.6617
2987	506.96954
-1097	511.0988
-1203	519.0237
-974	529.56854
4170	539.36725
3051	547.6817
-1094	552.29034
-1208	552.7266
-994	549.9554
4069	543.80896
2940	537.07935
-1077	530.599
-1187	526.00757
-1007	524.9538
4059	526.36487
3126	530.7882
-1077	536.06964
-1211	540.7115
-1037	543.8581
3923	543.06366
3111	538.88855
-1081	530.69275
-1186	519.5302
-1007	507.65344
4068	495.5127
3206	485.75574
-1069	478.61047
-1191	474.41824
-1011	473.44696
3909	473.39633
3063	474.03598
-1088	473.2394
-1211	470.25027
-1041	465.84222
3859	459.66284
3126	454.4584
-1068	451.50385
-1189	452.87546
-1025	460.95172
3994	475.0879
3294	495.7647
-1049	520.2153
-1180	545.4833
-1031	568.91156
3926	585.84094
3299	594.6623
-1047	593.26117
-1194	581.77374
-1046	562.8447
3729	538.444
3253	513.5014
-1049	491.20822
-1182	474.69427
-1054	466.68713
3786	466.19315
3337	472.79288
-1031	482.95306
-1179	493.05252
-1047	500.47037
3829	501.26517
3257	495.1605
-1056	481.76025
-1182	462.87027
-1050	442.6207
3853	423.64737
3419	410.72205
-1036	405.97968
-1204	410.63245
-1082	425.19324
3746	446.36188
3361	471.76288
-1031	496.6185
-1192	516.7376
-1072	529.81464
3874	532.7637
3563	526.4182
-1041	511.5995
-1205	490.82806
-1091	468.52905
3741	447.08127
3621	430.49728
-1018	420.15112
-1197	416.50427
-1100	419.88174
3722	427.40207
3529	437.73083
-1032	447.8625
-1189	455.52283
-1086	460.3182
3803	460.63748
3729	457.9722
-1039	452.9634
-1208	446.88104
-1091	442.21387
3855	438.88672
3901	438.40598
-1001	440.24622
-1199	443.43738
-1091	447.90097
3897	451.2749
3852	453.6107
-1009	453.95114
-1194	451.97095
-1092	449.08557
3906	444.85117
3947	441.11948
-996	438.26627
-1181	436.42838
-1100	436.58746
3741	437.15204
3901	438.3589
-994	439.01465
-1198	438.19815
-1114	436.625
3744	433.30194
3877	429.82382
-996	426.81015
-1177	425.0444
-1094	426.42502
3836	430.2023
4074	437.11258
-984	445.95135
-1194	454.88705
-1116	463.08887
3703	467.55136
4053	467.7064
-989	462.54056
-1202	451.93185
-1129	438.04276
3700	421.7096
3997	406.33337
-982	394.21463
-1205	387.1883
-1121	387.5622
3709	394.43747
4078	407.8065
-987	425.53537
-1190	444.66156
-1116	463.33505
3600	477.80246
4239	486.91663
-956	489.538
-1184	485.33255
-1133	476.35504
3631	463.23898
4251	448.98105
-946	435.5211
-1171	424.09543
-1121	416.92325
3621	413.2136
4271	413.4305
-952	416.54733
-1182	420.99597
-1142	426.65118
3411	431.46228
4023	435.6157
-972	438.7055
-1204	440.3927
-1130	441.9559
3528	442.56512
4186	443.2138
-964	443.8079
-1202	443.775
-1141	443.92334
3541	442.92035
4369	441.44562
-936	439.67026
-1191	437.5328
-1143	436.65393
3453	436.5945
4263	438.66034
-932	443.08072
-1197	449.2336
-1154	457.53152
3241	465.89413
4013	473.78076
-933	479.72083
-1179	482.14847
-1162	481.5261
3184	476.8269
3961	469.45013
-944	460.57468
-1174	451.39
-1148	444.66125
2974	440.92642
3921	441.87057
-922	447.73172
-1191	457.6217
-1144	471.4454
3119	486.5945
4064	501.97385
-939	515.9049
-1203	526.6534
-1161	534.62854
2948	538.8847
4041	540.67
-916	540.99097
-1181	540.5079
-1151	541.28455
3011	542.96295
4063	546.2713
-909	550.7315
-1201	554.8867
-1171	558.5774
2924	559.64545
4037	557.8157
-916	552.7007
-1188	544.05444
-1169	533.85223
2809	522.57404
4016	512.48157
-886	505.21912
-1191	501.57962
-1155	503.2654
2792	509.26306
4009	519.3044
-912	531.9225
-1204	544.64984
-1181	556.5605
2609	565.0005
3816	569.28973
-916	568.9235
-1194	563.5794
-1180	555.29535
2487	544.6813
3840	533.97626
-886	524.8312
-1203	517.9728
-1168	515.2139
2796	515.68994
4186	519.3727
-882	525.3565
-1217	531.774
-1180	538.41614
2592	543.4008
3954	546.69806
-890	548.39124
-1209	548.38165
-1180	548.59796
2672	549.13324
4168	551.37317
-857	555.963
-1197	562.2518
-1187	570.72107
2606	579.29297
4115	586.8874
-862	591.9525
-1194	592.3449
-1173	588.17224
2359	578.33795
3853	563.8568
-862	546.2357
-1199	526.8382
-1184	509.12646
2456	494.59753
4014	485.67032
-852	483.75027
-1187	488.4667
-1167	500.24173
2513	516.6215
4165	535.78485
-837	555.3277
-1184	572.0684
-1165	585.0074
2502	591.8857
4176	592.5918
-842	587.6213
-1183	577.2585
-1182	564.07764
2479	548.799
4193	533.253
-859	518.6974
-1214	504.93372
-1185	493.0937
2468	481.97192
4283	471.44388
-834	461.266
-1182	450.43604
-1188	440.24484
2402	430.32913
4272	421.79422
-836	415.72986
-1187	411.9714
-1186	411.99323
2185	414.8215
4052	420.11032
-809	426.96906
-1181	433.3201
-1193	439.06137
2449	442.39246
4493	443.22952
-786	442.08167
-1191	438.81577
-1185	435.69876
2320	433.04697
4397	432.08353
-790	433.54163
-1207	436.332
-1191	440.85767
2275	445.04257
4413	447.76776
-789	448.10974
-1202	444.5111
-1185	438.22992
2196	429.3036
4237	419.51657
-821	410.91278
-1220	404.2851
-1202	401.9939
2116	403.4966
4256	408.2522
-748	414.78036
-1169	419.7417
-1195	421.76273
2114	417.8881
4294	407.16437
-765	390.02084
-1188	367.12323
-1172	342.49808
2081	318.98163
4257	300.5675
-781	290.6896
-1202	290.30368
-1202	300.90442
1919	320.2405
4181	345.49075
-772	372.97543
-1195	397.50208
-1191	416.64908
1909	427.26044
4331	428.74857
-739	422.47122
-1183	409.9702
-1181	395.90927
1959	383.1978
4359	375.1126
-744	373.95294
-1176	379.11758
-1185	390.65298
2014	405.2794
4534	419.83972
-713	431.41153
-1202	436.1106
-1194	433.5162
1876	422.639
4389	404.80182
-724	382.8081
-1191	358.71957
-1189	337.09824
1804	320.1373
4320	310.02795
-715	308.14792
-1189	313.25385
-1192	325.43484
1771	342.08228
4332	361.02576
-714	380.46103
-1194	397.3951
-1196	411.58398
1736	421.46265
4335	426.82803
-693	428.34692
-1192	425.6095
-1204	420.81134
1654	414.4021
4296	407.6579
-700	402.20822
-1192	397.99005
-1181	397.06882
1634	399.17166
4278	404.24448
-701	412.08862
-1182	420.43842
-1184	428.99954
1599	435.40778
4281	438.10565
-690	436.46353
-1196	429.00912
-1194	417.4071
1550	402.37076
4285	386.00018
-686	371.3236
-1195	359.7872
-1197	354.62427
1134	356.489
4063	365.38565
-627	380.8355
-1190	399.7943
-1187	420.8056
1482	440.4736
4330	456.29907
-657	467.1282
-1199	471.10382
-1198	469.69296
1489	463.39032
4451	453.77823
-637	443.33658
-1199	432.50958
-1202	423.5423
1459	416.19812
4501	410.13055
-637	405.32428
-1202	399.81827
-1193	394.1435
1345	387.46756
4228	379.98907
-667	373.09317
-1186	366.73068
-1205	363.21317
1301	362.78763
4300	365.61816
-625	371.97366
-1195	379.63907
-1192	388.21582
1374	395.34622
4410	399.2721
-612	399.55258
-1196	394.59903
-1204	385.9584
1216	374.16898
4165	360.68683
-657	347.9867
-1211	336.60413
-1213	328.91882
1234	325.0275
4340	324.78024
-602	328.45856
-1203	334.06958
-1214	341.7949
1158	350.25876
4321	358.69012
-602	367.51114
-1192	375.48297
-1191	383.90445
1134	392.31787
4200	400.4282
-604	408.59018
-1198	415.04892
-1192	420.2177
1195	422.8355
4414	422.16412
-564	418.7801
-1207	411.70062
-1197	402.7669
819	392.5041
4151	381.749
-538	372.28354
-1176	363.7474
-1178	357.79828
1119	354.01358
4370	351.88034
-552	351.73358
-1191	351.80487
-1187	352.66995
1091	353.43195
4376	353.6302
-559	354.02985
-1189	353.4412
-1197	353.0397
1059	352.26425
4347	350.70004
-559	348.931
-1185	345.499
-1196	341.51828
1049	336.65247
4457	331.05896
-542	326.28976
-1204	321.925
-1199	319.95132
1055	320.41248
4514	323.11188
-546	328.46207
-1206	334.15265
-1209	339.9151
1079	343.5921
4608	343.33987
-510	338.99326
-1184	328.87122
-1186	314.66626
1092	297.17593
4648	278.0202
-519	260.41995
-1206	245.27892
-1217	235.6362
1060	232.13405
4504	234.76747
-526	243.98611
-1181	257.32556
-1188	274.3603
1154	292.88116
4794	311.0071
-472	328.48834
-1186	343.0734
-1194	355.48236
1140	364.90775
4776	370.786
-479	373.91858
-1182	372.67218
-1182	368.0722
1114	359.6162
4788	347.26562
-455	332.86014
-1197	316.3169
-1205	300.5965
1128	287.1352
4857	277.3515
-456	273.63043
-1199	275.11557
-1194	282.51758
1134	293.8753
4874	306.5525
-464	319.02393
-1199	327.38065
-1211	330.88895
1088	328.14786
4855	319.04834
-439	306.12625
-1202	290.27847
-1197	275.359
1081	263.38464
4661	255.78624
-468	254.36397
-1200	257.3036
-1189	264.31723
1108	272.79028
4888	280.01593
-413	285.25653
-1187	286.02814
-1199	283.44904
1117	277.99283
4924	270.91278
-418	265.35507
-1198	261.56012
-1191	261.69165
1168	265.24393
4957	270.7596
-431	277.60208
-1194	282.13455
-1201	283.57968
1191	280.17758
5241	271.29092
-357	259.2338
-1197	244.5903
-1184	231.29878
1252	221.63046
5470	217.26328
-335	220.704
-1194	230.24165
-1190	245.53648
1251	263.5254
5387	280.63046
-349	295.2704
-1189	303.72876
-1204	306.1219
1223	302.22192
5416	292.98834
-333	282.13528
-1188	270.79193
-1192	262.49686
1248	258.349
5553	258.33173
-294	263.32565
-1194	270.3924
-1197	278.81342
1243	286.24017
5606	290.73102
-279	293.19547
-1189	292.4588
-1206	290.80472
1136	289.3283
5396	289.02255
-301	292.43552
-1181	298.41757
-1189	307.58823
1082	318.1407
5416	327.60733
-266	335.46805
-1199	338.63702
-1182	337.44696
1089	331.63892
5343	321.81677
-282	311.38132
-1215	301.18405
-1191	294.6436
986	293.06573
5202	296.6464
-284	306.65375
-1199	320.31763
-1198	336.7193
1009	353.11313
5314	366.66965
-277	377.1433
-1186	382.08365
-1180	382.63333
974	379.20148
5337	372.56512
-246	365.85797
-1184	359.0835
-1194	354.61734
908	352.7178
5173	352.82712
-246	355.9209
-1183	359.62408
-1200	364.21802
905	368.49658
5339	371.20694
-209	373.54205
-1190	373.92947
-1192	373.6052
858	372.3396
5199	369.58972
-250	366.83057
-1189	362.40714
-1191	357.3261
827	351.19113
5249	343.5048
-198	336.19003
-1192	328.40552
-1200	322.2132
837	318.20782
5307	316.51364
-176	319.12714
-1198	324.52692
-1203	333.2691
763	343.96988
5094	354.60806
-232	365.20416
-1203	372.9117
-1187	377.9885
760	379.83365
5286	378.13516
-157	375.4624
-1211	371.70554
-1202	369.6175
729	370.38986
5213	374.44766
-164	383.87308
-1200	397.00336
-1207	414.1306
922	433.54962
5796	452.8444
-61	472.02124
-1197	487.9749
-1199	500.70673
671	509.28546
5270	512.8102
-95	513.27814
-1192	509.8453
-1199	504.52936
644	498.11142
5118	490.95178
-171	485.58234
-1195	481.26852
-1190	479.7668
653	481.18842
5258	484.90906
-94	492.33044
-1184	501.3686
-1187	512.2978
678	523.6814
5419	533.40765
-56	541.73303
-1192	545.8601
-1181	546.0189
638	541.5741
5466	532.00586
3	519.9057
-1207	505.1628
-1192	490.69235
591	478.04337
5330	467.92865
0	462.8639
-1187	461.35458
-1186	463.8032
554	468.48834
5298	472.70105
-12	476.0537
-1201	475.25342
-1203	470.4574
561	461.31348
5266	447.901
-37	433.4932
-1180	418.59842
-1176	406.5917
557	399.04276
5443	396.18137
34	399.71872
-1186	407.12228
-1191	417.75433
566	429.10825
5502	438.07962
47	444.47995
-1204	445.5652
-1206	442.38605
537	435.5011
5521	425.58862
69	416.20502
-1192	407.52362
-1201	402.10645
548	400.36307
5648	401.24396
92	405.55527
-1192	410.2123
-1187	414.8127
503	417.76767
5453	417.37164
79	415.09235
-1204	409.7463
-1191	403.53186
456	397.51666
5512	392.05225
139	389.70584
-1193	389.18185
-1193	391.44907
513	395.54483
5792	399.48566
204	403.8926
-1204	406.12662
-1212	406.737
469	405.31946
5718	401.15845
215	396.46622
-1187	390.25626
-1196	384.2372
418	378.62936
5629	372.7548
229	368.44064
-1188	364.14694
-1191	361.277
372	360.10312
5332	360.45682
165	364.79895
-1176	372.2778
-1184	384.60257
353	401.5902
5346	421.63953
156	444.84647
-1189	467.33047
-1197	487.6225
403	502.8001
5708	509.5901
283	508.1962
-1177	496.4857
-1196	476.56262
344	450.32556
5546	419.8216
233	390.18137
-1195	362.9912
-1187	342.36688
358	330.03824
5684	325.76923
339	330.77844
-1179	341.79803
-1204	357.8774
309	376.34744
5616	393.86816
308	410.19873
-1187	422.29413
-1196	430.8892
303	435.98297
5630	437.2753
304	437.40588
-1194	435.5147
-1199	433.6653
293	432.2035
5685	430.2988
331	429.51797
-1198	427.64917
-1201	425.5002
328	422.4857
5876	417.3034
394	411.68665
-1211	404.06284
-1184	396.1262
343	388.41153
6211	380.63443
523	375.5485
-1202	372.12854
-1193	372.14078
357	375.68243
6250	381.48645
544	390.88312
-1184	401.16623
-1185	412.33252
366	422.94763
6347	430.6843
569	436.6261
-1192	438.66257
-1207	438.1744
333	435.7956
6336	431.59454
619	428.9163
-1197	427.32593
-1184	428.9375
318	433.9291
6353	440.706
652	450.08273
-1190	458.6456
-1179	465.71857
353	469.50363
6558	467.68805
717	461.99667
-1178	451.377
-1187	438.50568
339	425.4062
6764	413.2002
858	406.09467
-1189	403.8463
-1192	408.16788
327	418.46494
6746	432.05624
813	448.93942
-1218	465.07764
-1210	479.47617
309	490.4599
6697	496.02274
818	498.33423
-1201	496.45294
-1186	492.69537
322	488.18253
6757	482.5643
818	478.2972
-1207	473.36572
-1192	468.1168
333	461.40826
7058	450.94812
969	438.38855
-1209	422.23825
-1201	404.5687
319	386.95972
6946	370.20197
966	358.59122
-1207	352.13208
-1194	352.87668
303	360.67148
7073	373.02985
1007	390.13943
-1192	407.76453
-1187	424.40735
260	437.8005
6896	445.2135
982	448.34155
-1191	445.8913
-1189	440.4243
206	433.72528
6715	426.35654
937	421.96844
-1205	419.7352
-1181	420.86975
190	424.73123
6693	428.85922
981	433.94492
-1191	436.9804
-1189	438.05093
189	436.6488
6814	431.5686
1077	425.59418
-1206	418.0342
-1204	411.06738
181	405.6482
6881	401.14056
1097	400.06744
-1213	400.7224
-1201	403.96854
129	409.44006
6511	415.50043
999	423.99097
-1186	433.0638
-1192	443.83014
120	456.33768
6515	469.24777
1012	484.4265
-1207	499.7307
-1202	515.5668
104	531.13666
6647	544.2715
1098	556.3704
-1204	565.2616
-1202	571.8284
117	576.2335
6836	577.53754
1178	578.49664
-1208	578.0747
-1206	577.85297
126	578.15344
7011	577.64764
1269	578.42926
-1198	578.5247
-1207	578.7083
28	578.8159
6701	577.45575
1226	576.9638
-1189	576.04785
-1196	576.3509
24	578.53
6598	581.7687
1177	588.5257
-1203	597.1466
-1196	608.4684
13	622.0093
6553	635.6542
1183	650.5844
-1201	664.0536
-1185	676.2093
-17	686.29694
6384	692.36536
1104	696.09344
-1204	695.6447
-1214	692.2403
-13	686.38153
6528	677.4174
1186	668.3964
-1197	658.66626
-1189	650.39667
-22	644.7226
6399	641.1738
1147	642.3872
-1195	646.6911
-1186	654.8636
-72	666.2809
6199	678.5819
1154	692.5483
-1189	705.155
-1192	716.3916
-70	725.60565
6323	731.1272
1178	735.1314
-1200	736.32776
-1193	736.456
-104	736.40137
6181	735.5085
1122	736.2155
-1202	736.9132
-1211	738.3098
-134	739.92474
6027	739.71857
1073	738.9194
-1193	735.18774
-1212	729.128
-147	720.7596
5901	709.08716
1025	696.6691
-1194	682.5101
-1192	668.5881
-176	655.9936
5854	644.35236
1046	636.3881
-1192	630.9199
-1184	629.30835
-149	631.76733
6289	636.73834
1241	645.82965
-1198	656.50946
-1204	668.7301
-159	681.35767
6252	691.6272
1231	700.22406
-1191	704.18896
-1172	703.6665
-142	698.463
6161	687.4957
1209	673.67694
-1196	656.6113
-1196	638.9813
-190	622.692
6058	607.9822
1204	598.03644
-1193	591.6679
-1200	589.8502
-215	592.175
6095	596.36816
1218	603.4441
-1186	610.67993
-1196	618.5326
-229	627.0463
5924	635.1643
1126	645.4616
-1201	656.5624
-1194	669.8556
-232	685.4155
5886	701.2104
1189	717.96375
-1178	732.06177
-1193	742.7646
-216	748.7014
6151	747.51025
1336	741.1085
-1189	728.345
-1189	711.9058
-231	694.2011
6098	676.2424
1293	662.20795
-1187	651.6043
-1183	645.98145
-226	645.06354
6059	646.09924
1296	649.2166
-1192	650.4267
-1196	649.07275
-261	644.4405
6108	635.1546
1430	624.26355
-1182	611.5616
-1199	600.2322
-286	592.55707
5590	588.7303
981	591.31714
-1191	597.68317
-1189	607.4204
-243	618.611
6281	627.38635
1489	633.69476
-1204	634.05115
-1204	629.0419
-279	619.57874
6091	605.83844
1448	592.0711
-1194	578.6113
-1202	568.5113
-272	563.3392
6204	562.00464
1558	565.95496
-1184	571.7572
-1196	578.55505
-326	584.6849
5921	587.1512
1474	587.01105
-1185	581.9682
-1186	573.6083
-337	563.3104
5986	550.9537
1458	539.79333
-1205	528.6344
-1205	518.89886
-347	510.81302
5964	502.52048
1588	495.48254
-1187	487.20004
-1189	478.63245
-348	470.5003
6135	462.1986
1733	456.95926
-1190	454.08115
-1187	455.6695
-369	462.75183
6135	473.95688
1747	490.77118
-1194	510.09988
-1189	531.315
-396	552.9711
5938	571.90875
1681	588.684
-1176	600.3455
-1185	607.32745
-440	609.9585
5778	607.23553
1702	601.8471
-1184	592.8046
-1179	582.1215
-384	571.29114
6093	559.95734
1828	551.1755
-1191	543.844
-1196	539.47156
-373	538.6209
6101	539.55286
1790	543.52795
-1204	547.4847
-1210	550.81354
-426	552.32404
5969	549.2888
1796	542.9836
-1183	531.6445
-1182	517.1432
-445	501.6796
5856	486.2395
1796	475.38995
-1181	469.53778
-1199	471.06085
-424	480.68274
6058	495.98413
1856	516.87714
-1174	538.4779
-1191	558.45795
-469	574.353
5804	582.7879
1813	585.1237
-1180	580.2287
-1176	571.1182
-467	561.1361
5777	551.9142
1795	547.93726
-1184	548.6825
-1206	554.8873
-513	565.34766
5624	575.8466
1923	584.87775
-1196	587.4249
-1211	582.0332
-489	568.3479
5920	545.9254
1995	519.4711
-1178	491.1775
-1196	466.37585
-498	449.69385
5827	442.76566
1965	448.933
-1187	465.89252
-1207	492.06882
-522	524.13153
5799	556.2516
2020	586.1336
-1182	608.6665
-1196	622.70886
-547	628.359
5538	625.36285
1928	617.8137
-1202	606.7214
-1217	595.50934
-537	586.59625
5823	579.5576
2120	576.3149
-1186	574.3812
-1192	573.1226
-536	571.5455
5863	567.106
2193	561.3093
-1186	552.8605
-1197	543.55536
-552	535.34796
5908	528.36835
2291	525.9145
-1186	527.26416
-1202	533.3224
-559	544.0223
5789	556.85394
2234	572.3108
-1174	587.38446
-1189	601.4844
-539	614.0389
5860	622.95276
2312	629.7949
-1184	632.9868
-1205	633.242
-563	631.0187
5999	624.8458
2430	616.71375
-1172	605.38293
-1194	591.98364
-577	577.75305
5798	562.3926
2333	549.27264
-1174	538.3931
-1187	531.93976
-662	531.5099
5538	536.1522
2409	547.3801
-1164	562.5835
-1187	580.7035
-687	600.04675
5711	616.81274
2569	630.738
-1179	638.8346
-1200	640.99695
-602	637.77747
5720	628.5882
2621	616.7053
-1161	602.53937
-1196	588.6102
-621	577.0506
5643	567.6312
2666	562.78784
-1162	561.20154
-1191	563.10364
-637	568.1999
5551	574.0643
2650	581.3686
-1179	587.74994
-1195	592.9728
-627	596.8369
5567	597.4536
2703	596.2965
-1159	591.9935
-1184	585.28723
-638	576.99664
5498	566.2243
2640	555.3853
-1162	543.86176
-1197	533.1169
-654	524.4937
5528	517.2687
2736	513.6842
-1169	512.63477
-1198	514.7111
-657	520.14636
5398	527.03973
2656	536.4383
-1157	546.2472
-1190	556.348
-684	566.5943
5182	575.03937
2546	582.8518
-1161	588.2121
-1197	591.35065
-701	592.5352
5298	590.1813
2594	585.8661
-1187	578.42584
-1210	568.7805
-671	557.9442
5544	545.30963
2781	533.66956
-1156	522.77625
-1187	514.3442
-682	509.90912
5622	508.65265
2973	512.5317
-1159	520.04297
-1192	531.0804
-673	545.2343
5541	559.8928
2896	575.56433
-1166	589.8116
-1192	602.2841
-676	612.9793
5658	620.13324
3007	625.4357
-1149	627.81604
-1216	628.0411
-705	627.01276
5400	623.66785
2773	620.0896
-1164	615.38416
-1193	610.5617
-710	606.7843
5520	603.26074
2894	602.3945
-1154	603.53357
-1194	607.54663
-686	615.10504
5736	624.344
3077	636.19495
-1144	648.12396
-1194	659.00934
-721	667.8376
5448	671.65674
3008	671.05963
-1144	664.2974
-1203	652.0787
-727	636.0761
5391	616.52985
2913	597.2295
-1134	579.1762
-1168	564.8518
-733	556.47534
5289	553.5079
2961	557.65137
-1134	567.0008
-1191	580.53033
-742	597.0431
5636	613.04803
3206	628.407
-1149	640.44867
-1204	648.62463
-743	653.2843
5588	653.19073
3104	650.7636
-1126	645.7467
-1191	639.6235
-821	634.064
5370	628.3583
3000	624.63196
-1137	621.8037
-1183	620.1235
-781	619.94684
5368	619.4093
3041	619.7656
-1142	619.5197
-1214	618.81696
-866	618.259
4966	616.5026
2821	615.2495
-1136	613.38947
-1200	611.48706
-875	610.38367
5157	608.74805
2951	608.24176
-1151	607.6769
-1196	607.27185
-820	607.49084
5563	606.47284
3418	605.40704
-1127	602.7199
-1192	598.14923
-854	591.8879
5336	582.14355
3157	570.5013
-1132	556.2705
-1191	540.4984
-854	525.15466
5162	510.396
3124	499.5515
-1127	493.14066
-1198	492.7515
-862	499.80472
5222	512.7501
3101	532.2465
-1139	555.4515
-1206	580.3716
-884	605.2498
4983	626.37146
3106	643.48987
-1119	654.57416
-1204	659.9104
-902	661.20703
4999	658.7216
3108	655.98315
-1129	653.89
-1184	654.05493
-894	657.7878
5021	663.2873
3167	670.81256
-1123	677.39923
-1211	681.1824
-908	681.1384
5092	674.7582
3206	663.56537
-1122	647.5829
-1197	629.10156
-929	611.6623
4759	596.7875
3094	588.45776
-1111	587.2179
-1182	593.7086
-918	607.9444
4970	626.58325
3640	648.34143
-1081	669.3536
-1184	687.00696
-918	700.02747
4910	705.86115
3294	705.83
-1106	699.6449
-1176	688.7873
-937	675.70386
4571	660.6263
3028	646.2684
-1108	632.40186
-1179	619.7344
-924	609.4692
4726	600.5782
3258	594.95026
-1102	592.2418
-1167	593.34216
-941	599.7778
4689	610.5122
3324	626.6622
-1100	646.2702
-1186	667.5088
-942	688.7662
4709	705.95935
3239	718.0681
-1099	722.3741
-1186	718.28455
-966	707.39996
4698	690.2932
3329	671.19867
-1092	652.3729
-1189	636.6755
-957	626.9227
4471	622.3323
3242	623.2329
-1093	626.3711
-1180	628.5305
-975	627.3244
4471	618.7941
3258	602.9853
-1103	579.5264
-1187	550.71576
-975	521.3465
4455	494.8395
3306	477.23447
