EEG_CH1_RAW	EEG_CH1_BP_0p5_20
-10734	2.60526
-1190	4.253676
-2837	6.1807795
-8661	9.319265
-8564	12.720896
-12466	17.042145
-16197	22.435072
-12961	27.361832
-9029	30.880312
-8541	33.08263
-11332	34.75724
-12588	36.274338
-10308	37.521114
-8592	38.964092
-8952	41.449493
-11872	46.053604
-13017	52.85206
-10456	60.81563
-8656	69.10947
-8949	77.09686
-11806	84.566956
-13140	90.918526
-10547	95.17018
-8669	97.434456
-9056	98.81764
-11997	101.22927
-13493	106.102806
-10706	113.74323
-8761	124.51846
-8977	138.43817
-11968	155.17908
-13405	173.13666
-10645	189.56316
-8843	202.55774
-9234	211.33418
-12128	216.5881
-13362	219.57413
-10547	221.74442
-8787	225.74236
-9129	234.46455
-12177	250.43121
-13756	274.12238
-10909	303.39044
-8887	335.1756
-9171	365.9167
-12120	392.4441
-13531	411.9356
-10688	422.52606
-9113	425.38214
-9589	424.2391
-12309	424.73172
-13738	432.3447
-11029	450.66785
-9466	481.7002
-9775	524.70026
-13111	576.386
-15851	630.67615
-11559	678.90405
-8927	714.4214
-9157	733.7686
-12209	737.8663
-13623	731.2698
-10799	721.19855
-8847	717.26
-9166	728.8751
-12191	762.83374
-13774	820.34796
-10776	895.91
-8897	979.6372
-9187	1058.9923
-12057	1121.8744
-13584	1158.9557
-10669	1166.095
-9064	1147.5027
-10394	1115.1776
-12361	1085.9296
-13699	1077.4961
-10636	1103.2037
-9022	1169.6812
-9314	1273.7891
-12244	1402.5607
-13839	1534.5703
-10779	1644.2588
-8987	1709.8458
-9345	1719.0636
-12309	1673.7758
-17548	1591.4286
-11531	1499.5558
-9054	1434.8888
-9323	1432.8799
-12353	1518.0294
-13954	1693.9883
-10771	1937.3872
-9017	2198.735
-9336	2406.6228
-12282	2477.835
-13897	2330.1272
-10799	1897.0072
-9035	1143.3202
-9455	74.3927
-12300	-1260.7136
-13979	-2774.1963
-10886	-4351.062
-9434	-5863.404
-9836	-7189.617
-13041	-8231.869
-15814	-8930.739
-11419	-9273.894
-8982	-9292.916
-9286	-9056.438
-12249	-8656.813
-14342	-8194.457
-10693	-7762.241
-8914	-7429.601
-9355	-7234.8945
-12421	-7183.211
-14134	-7251.4795
-10680	-7397.89
-8916	-7571.3438
-9337	-7723.629
-12289	-7818.7046
-14005	-7839.186
-10604	-7787.9517
-8965	-7682.8306
-9377	-7551.0176
-12414	-7421.3
-14084	-7318.073
-10730	-7256.846
-8943	-7240.1963
-9457	-7259.3193
-12472	-7297.4927
-14151	-7335.951
-10702	-7359.402
-8934	-7357.797
-9345	-7328.718
-13153	-7276.6646
-14212	-7212.3794
-10838	-7149.224
-9111	-7097.989
-9503	-7064.68
-12583	-7049.1655
-14172	-7046.7593
-10632	-7050.7573
-9062	-7053.1978
-9495	-7048.481
-12430	-7035.1978
-14264	-7017.7324
-11313	-7005.793
-9052	-7010.336
-9412	-7040.451
-12617	-7100.279
-14225	-7187.7974
-10822	-7294.42
-9215	-7404.0264
-9361	-7496.3364
-13078	-7550.2046
-16183	-7549.0225
-11783	-7485.5796
-9130	-7361.345
-9232	-7187.5356
-12635	-6983.364
-14440	-6773.9326
-10704	-6586.3794
-9195	-6443.035
-9567	-6358.518
-12421	-6337.0474
-14207	-6372.8657
-10749	-6452.297
-9114	-6554.59
-9551	-6656.5747
-12567	-6736.679
-14151	-6779.6562
-10765	-6779.4883
-9126	-6738.322
-9590	-6666.2935
-12555	-6579.198
-14446	-6496.2344
-10752	-6437.217
-9147	-6416.942
-9716	-6443.435
-12573	-6516.515
-14412	-6628.5786
-10684	-6766.6104
-8831	-6912.1626
-9562	-7044.763
-12599	-7144.983
-14331	-7198.022
-10639	-7196.4146
-8912	-7138.9766
-9552	-7031.571
-12631	-6886.1626
-14379	-6720.0225
-10516	-6554.093
-9043	-6408.025
-9482	-6298.617
-12354	-6237.4233
-14386	-6230.206
-10552	-6277.2427
-9121	-6371.056
-9567	-6498.565
-12179	-6642.624
-13820	-6786.4
-10436	-6910.364
-9131	-7003.195
-9832	-7055.718
-13391	-7062.248
-15792	-7025.296
-11400	-6953.1143
-9132	-6855.854
-9350	-6746.7886
-12405	-6639.0215
-14031	-6543.769
-10329	-6469.1104
-8758	-6418.0664
-9359	-6390.3
-12358	-6381.78
-14124	-6386.611
-10549	-6398.5728
-9172	-6411.0776
-9431	-6420.079
-12156	-6423.354
-14533	-6421.051
-10457	-6416.0117
-8600	-6410.9375
-9209	-6409.2935
-12056	-6413.4526
-13921	-6424.5376
-10261	-6442.623
-8567	-6465.3213
-9299	-6490.2036
-12357	-6514.384
-14381	-6535.76
-10305	-6553.8477
-8865	-6568.0234
-9561	-6579.4546
-12432	-6589.237
-14454	-6598.328
-10666	-6607.4253
-8971	-6615.0415
-9656	-6619.469
-12799	-6618.0903
-14828	-6608.935
-10702	-6591.9624
-8924	-6567.934
-9537	-6540.843
-12751	-6516.355
-14484	-6501.742
-10486	-6504.66
-8934	-6529.938
-9423	-6580.287
-12370	-6653.792
-14197	-6744.45
-10112	-6843.2095
-8829	-6937.329
-9596	-7014.6406
-13016	-7064.1143
-14743	-7078.903
-11629	-7057.351
-9001	-7001.955
-9301	-6921.1104
-12247	-6825.849
-14058	-6728.461
-10226	-6640.726
-8686	-6570.5547
-9261	-6522.898
-12267	-6498.1865
-14207	-6493.5474
-10336	-6504.356
-8732	-6523.937
-9196	-6547.2183
-12438	-6570.072
-14387	-6590.609
-10366	-6609.1655
-8864	-6625.6763
-9513	-6641.031
-12603	-6654.843
-14572	-6665.388
-10369	-6671.1533
-8694	-6668.7803
-9263	-6656.576
-12161	-6633.9756
-14041	-6603.043
-10359	-6568.7837
-8752	-6536.742
-9387	-6513.8506
-12427	-6505.236
-14149	-6513.439
-10198	-6537.9985
-8691	-6571.4565
-9249	-6605.9673
-12251	-6631.1504
-14227	-6637.602
-10117	-6619.9727
-8719	-6576.9106
-9511	-6514.437
-12441	-6443.895
-14219	-6380.725
-10166	-6341.8247
-8756	-6340.1113
-9506	-6383.647
-12547	-6471.8403
-14292	-6595.507
-10104	-6738.3745
-8640	-6877.883
-9467	-6991.5674
-11808	-7059.942
-16383	-7070.098
-12636	-7020.4224
-9245	-6917.9863
-9402	-6779.845
-12394	-6628.0474
-14349	-6486.0547
-10221	-6374.8247
-8691	-6306.8135
-9262	-6286.668
-12399	-6308.8506
-14446	-6360.1655
-10062	-6423.45
-8752	-6479.2236
-9612	-6512.4424
-12641	-6513.714
-14462	-6481.6177
-10160	-6422.9927
-8846	-6348.9155
-9504	-6274.5903
-12446	-6214.1177
-14546	-6178.35
-10166	-6173.5234
-8547	-6198.409
-9298	-6247.702
-12516	-6312.1875
-14672	-6381.9355
-10161	-6449.2676
-8639	-6508.026
-9280	-6556.9795
-12397	-6597.472
-14532	-6632.9326
-10111	-6667.1978
-8563	-6701.268
-9224	-6734.343
-12342	-6762.0674
-14497	-6778.306
-10252	-6777.383
-8774	-6754.0513
-9261	-6708.094
-12369	-6643.3394
-14472	-6568.67
-10148	-6497.214
-8705	-6441.7217
-9307	-6414.2466
-12351	-6421.9653
-14589	-6465.6157
-10223	-6539.421
-8455	-6629.829
-8431	-6720.3887
-13265	-6792.3447
-16602	-6830.3213
-12240	-6825.528
-9002	-6775.2793
-9262	-6686.3926
-12421	-6572.09
-14666	-6450.0815
-10119	-6339.651
-8654	-6255.928
-9371	-6209.9873
-12492	-6204.9805
-14605	-6237.0244
-10252	-6297.0493
-8583	-6370.7993
-9260	-6444.5195
-12400	-6505.8335
-14381	-6546.7417
-9917	-6564.9893
-8392	-6561.6
-9142	-6542.2573
-12359	-6513.5845
-14477	-6482.1006
-9989	-6453.312
-8416	-6428.474
-9241	-6407.715
-12456	-6388.8867
-14517	-6369.808
-9964	-6350.173
-8369	-6329.842
-9071	-6311.903
-12289	-6300.047
-14491	-6298.0303
-10012	-6309.007
-8496	-6331.8228
-9117	-6363.3877
-12093	-6397.0527
-16114	-6424.1865
-10287	-6438.3867
-8325	-6433.6885
-9081	-6409.9297
-12297	-6371.529
-14332	-6328.2573
-9876	-6294.199
-8380	-6282.5283
-9070	-6305.5776
-12135	-6369.5347
-14389	-6473.364
-9935	-6608.9106
-7807	-6759.4443
-9621	-6904.464
-13189	-7022.194
-16547	-7094.037
-11994	-7109.246
-8581	-7064.656
-8969	-6967.7573
-12151	-6833.6733
-14172	-6683.083
-9703	-6538.847
-8180	-6419.738
-8788	-6339.976
-11981	-6305.061
-14565	-6312.28
-9773	-6352.989
-8116	-6412.3545
-9058	-6475.567
-12355	-6528.958
-14232	-6563.5107
-9875	-6576.4424
-8501	-6568.3247
-8990	-6545.3613
-12166	-6514.813
-14594	-6483.7656
-9999	-6458.321
-8356	-6439.9717
-9054	-6428.63
-12172	-6421.5747
-14472	-6415.5186
-10007	-6408.9185
-8299	-6400.282
-8926	-6391.623
-12079	-6385.5674
-14253	-6385.185
-9741	-6393.468
-8279	-6409.3545
-9030	-6430.4116
-12314	-6450.9946
-14276	-6464.4087
-9689	-6465.3374
-8139	-6449.274
-8956	-6417.3506
-12182	-6374.7935
-14328	-6331.353
-9814	-6300.333
-8022	-6293.6523
-8761	-6321.883
-11785	-6389.5054
-13193	-6494.385
-10174	-6627.3813
-8976	-6772.183
-8937	-6910.7085
-13047	-7023.3633
-16590	-7094.283
-11464	-7115.13
-8378	-7083.947
-8781	-7007.2188
-11988	-6897.519
-14130	-6771.0757
-9548	-6645.407
-7664	-6533.8555
-9408	-6446.0723
-12328	-6385.705
-14193	-6351.115
-9487	-6337.6045
-8062	-6336.834
-8926	-6342.157
-12132	-6347.9756
-14158	-6351.5684
-9569	-6353.3804
-8019	-6353.7007
-8828	-6354.521
-12090	-6356.066
-13956	-6357.277
-9690	-6356.3794
-8134	-6349.4683
-8802	-6335.019
-12028	-6312.8813
-13941	-6286.277
-9360	-6262.387
-7972	-6248.733
-8777	-6254.2983
-11917	-6284.948
-14012	-6341.976
-9452	-6421.3096
-8044	-6510.8613
-8914	-6595.1567
-11980	-6656.088
-13902	-6677.779
-9302	-6651.193
-7846	-6574.5474
-8734	-6458.042
-12004	-6320.668
-13974	-6188.236
-9457	-6089.302
-8027	-6047.0737
-8764	-6077.414
-11879	-6182.7803
-14162	-6351.835
-9763	-6561.677
-8266	-6779.192
-9197	-6969.956
-12695	-7102.2637
-15061	-7153.914
-10026	-7117.7363
-7840	-6998.5
-8713	-6815.897
-11925	-6598.8345
-13844	-6379.8374
-9239	-6189.8364
-7771	-6050.506
-8675	-5974.182
-11765	-5960.589
-13634	-5999.283
-9166	-6073.4927
-7785	-6161.9663
-8662	-6246.7686
-11827	-6314.0728
-13707	-6357.086
-9306	-6376.639
-7920	-6377.0786
-8717	-6366.963
-13617	-6353.2603
-14319	-6341.716
-9346	-6334.8784
-7938	-6330.0757
-8838	-6324.2295
-12109	-6313.2246
-14049	-6294.8643
-9349	-6270.763
-7941	-6243.8193
-8865	-6220.8423
-12062	-6208.042
-14012	-6209.9346
-9576	-6227.971
-8234	-6256.9893
-8712	-6289.154
-11921	-6312.875
-14087	-6316.8477
-9461	-6293.9507
-7851	-6241.263
-8617	-6165.0977
-11931	-6078.313
-14003	-5999.583
-9397	-5950.399
-7880	-5948.0146
-8736	-6004.6724
-12049	-6121.7896
-14059	-6289.8447
-9622	-6489.812
-8163	-6693.578
-9164	-6872.027
-12476	-6997.939
-14429	-7052.3975
-9854	-7027.9316
-7829	-6928.053
-8701	-6769.521
-11971	-6577.261
-13824	-6379.9526
-9559	-6205.4785
-7989	-6073.913
-8622	-5997.733
-11849	-5977.777
-13662	-6005.391
-9214	-6065.5054
-7861	-6137.85
-8644	-6204.451
-11837	-6250.5522
-13697	-6268.0024
-9344	-6256.447
-7939	-6220.11
-8647	-6169.1885
-11804	-6114.5894
-13784	-6066.463
-9352	-6032.801
-7970	-6015.767
-8732	-6015.1816
-11922	-6026.752
-13932	-6044.602
-9409	-6063.5444
-7853	-6077.8096
-8684	-6085.243
-11761	-6084.9414
-14816	-6077.576
-9736	-6066.1396
-8118	-6051.688
-8806	-6036.6133
-11974	-6021.7036
-13676	-6007.522
-9258	-5995.571
-7760	-5985.3003
-8557	-5979.681
-11756	-5981.554
-13601	-5994.5337
-9259	-6022.8125
-7969	-6067.7207
-8844	-6130.1396
-11881	-6207.208
-13811	-6293.1055
-9581	-6380.0947
-8376	-6456.8584
-9096	-6513.5337
-12628	-6540.875
-15007	-6532.307
-9856	-6486.709
-7939	-6405.311
-8801	-6295.5493
-11937	-6168.1846
-14071	-6035.99
-9299	-5913.107
-7844	-5810.6865
-8756	-5738.962
-12057	-5703.626
-13951	-5706.4966
-9383	-5746.0933
-7896	-5815.2896
-8742	-5906.079
-12041	-6007.824
-13915	-6109.5986
-9390	-6201.933
-8003	-6275.4756
-8729	-6325.1274
-11974	-6347.8936
-13827	-6344.481
-9379	-6319.432
-7786	-6277.9434
-8642	-6228.5576
-12027	-6179.296
-13767	-6137.6865
-9318	-6110.046
-7871	-6098.0586
-8594	-6101.9487
-12027	-6117.9287
-13716	-6140.1646
-9411	-6162.245
-7951	-6176.1987
-8667	-6177.377
-11932	-6162.883
-13754	-6133.4946
-9369	-6094.0767
-7923	-6050.57
-8652	-6012.127
-11879	-5986.883
-13821	-5981.5186
-9420	-6000.511
-7670	-6042.857
-8434	-6105.192
-11923	-6179.902
-13555	-6257.458
-9104	-6328.2935
-7959	-6382.3584
-8680	-6413.146
-12222	-6416.5806
-14367	-6393.032
-9645	-6346.8643
-7991	-6282.919
-8425	-6209.706
-12017	-6135.155
-13989	-6066.351
-9505	-6009.277
-8226	-5965.848
-8938	-5937.5356
-12111	-5923.136
-14037	-5919.8926
-9614	-5925.399
-8156	-5935.383
-8904	-5947.6094
-12092	-5959.42
-13725	-5969.157
-9477	-5976.5503
-8234	-5980.362
-8974	-5981.7935
-12274	-5981.6836
-14220	-5981.6587
-9680	-5984.58
-8343	-5991.8223
-8836	-6006.3066
-11895	-6029.384
-13768	-6061.5005
-9256	-6102.251
-7696	-6147.6543
-8792	-6193.4966
-12336	-6233.1816
-14212	-6259.855
-9982	-6267.9097
-8462	-6251.8457
-9125	-6210.8237
-12395	-6146.6855
-14221	-6065.515
-9725	-5977.7007
-8278	-5894.256
-8894	-5828.644
-12301	-5791.943
-15582	-5791.98
-9727	-5833.3916
-8382	-5912.849
-9096	-6023.353
-12472	-6152.2227
-14367	-6284.1855
-9705	-6404.1807
-8409	-6496.936
-9081	-6552.828
-12807	-6566.4307
-15142	-6538.5034
-10199	-6476.2793
-8289	-6389.3154
-8931	-6291.3643
-12549	-6195.4585
-15145	-6112.791
-10486	-6052.1646
-8746	-6016.318
-9556	-6005.2393
-13879	-6013.9937
-17212	-6035.4014
-11381	-6062.838
-9379	-6088.028
-10466	-6105.934
-16431	-6112.4253
-25811	-6105.268
-16342	-6088.842
-13056	-6065.375
-15759	-6038.8784
-39521	-6008.0425
-46157	-5977.096
-45059	-5948.04
-34063	-5924.2803
-40702	-5904.9375
-45272	-5890.2324
-45482	-5880.3755
-45732	-5874.115
-44421	-5870.0396
-43046	-5868.275
-42466	-5867.83
-43306	-5866.7983
-43262	-5862.7964
-31380	-5855.9424
-18197	-5847.545
-22157	-5834.4136
-20207	-5816.938
-9223	-5796.889
-6024	-5773.3735
-5448	-5748.0684
-5336	-5722.4775
-11646	-5696.291
-39709	-5663.9688
-40628	-5628.881
-38167	-5594.9897
-37729	-5565.753
-37472	-5544.9697
-40132	-5534.83
-44545	-5536.001
-47022	-5549.756
-47742	-5574.5615
-50117	-5605.1885
-46209	-5635.118
-15222	-5662.042
-6536	-5677.1045
-5964	-5672.92
-4331	-5645.682
-3752	-5594.824
-20815	-5520.3384
-46612	-5428.3687
-46056	-5335.2676
-47619	-5254.783
-43056	-5199.7188
-14420	-5182.631
-8427	-5202.148
-11041	-5247.9946
-12256	-5303.234
-7096	-5347.3613
-6227	-5358.283
-21337	-5317.751
-45120	-5216.307
-46977	-5062.8228
-45181	-4876.325
-21915	-4689.4683
-9222	-4535.0
-7283	-4439.223
-7965	-4417.2065
-8788	-4467.4937
-7470	-4571.765
-6882	-4699.2827
-8083	-4811.3755
-7640	-4871.651
-5707	-4854.8496
-6302	-4752.788
-7389	-4581.5063
-9056	-4375.774
-9439	-4182.39
-7693	-4048.4521
-7492	-4008.2349
-9823	-4074.6694
-15142	-4231.282
-19174	-4434.747
-12756	-4624.9883
-10765	-4735.4497
-11467	-4714.317
-15719	-4537.2305
-17589	-4218.8716
-10035	-3814.6208
-7747	-3407.048
-7837	-3092.0054
-9357	-2952.6729
-11688	-3037.1597
-8909	-3342.9727
-6602	-3810.3984
-6961	-4334.317
-9492	-4784.2227
-10801	-5036.7026
-8088	-5009.616
-7175	-4688.7295
-8134	-4145.8374
-11291	-3532.9866
-13396	-3061.722
-9032	-2966.532
-7977	-3457.2427
-9198	-4679.4424
-12699	-6680.706
-14952	-9399.952
-9821	-12679.044
-8058	-16290.948
-8421	-19987.436
-11212	-23542.51
-12089	-26790.764
-8320	-29645.074
-7149	-32089.086
-7364	-34152.31
-10894	-35864.477
-10544	-37212.86
-8158	-38108.32
-7359	-38376.78
-8031	-37784.72
-11284	-36089.625
-12679	-33115.05
-8069	-28828.816
-7652	-23402.863
-9521	-17244.256
-12134	-10973.21
-13531	-5352.5107
-8533	-1174.4467
-7639	879.70935
-7841	371.19525
-10704	-2788.751
-12156	-8291.431
-8588	-15452.225
-7347	-23301.664
-7721	-30739.133
-10340	-36712.41
-11415	-40398.09
-8141	-41343.4
-7309	-39540.848
-7363	-35425.27
-11933	-29783.143
-13179	-23603.775
-8954	-17892.283
-6559	-13484.721
-6784	-10906.318
-8721	-10291.432
-9274	-11387.273
-7053	-13633.369
-6272	-16299.09
-6938	-18651.44
-9310	-20108.7
-9741	-20356.656
-6975	-19398.06
-6430	-17528.918
-6853	-15254.017
-8647	-13153.519
-9188	-11740.974
-6821	-11340.122
-6051	-12008.23
-6342	-13525.574
-8137	-15444.11
-8911	-17190.707
-6816	-18196.443
-6068	-18023.236
-7183	-16463.637
-10158	-13585.028
-10899	-9718.277
-7215	-5389.7114
-6303	-1212.9863
-7120	2228.8997
-9874	4495.987
-11075	5366.34
-7741	4864.134
-6610	3238.3577
-7206	894.619
-9146	-1694.017
-11003	-4083.7998
-7151	-5941.4644
-6754	-7090.8384
-7372	-7526.5713
-9571	-7384.3
-10526	-6887.5063
-7692	-6281.2188
-6970	-5768.0513
-7704	-5468.9
-10635	-5401.934
-11827	-5495.19
-8012	-5619.682
-8012	-5632.5684
-8693	-5425.7686
-11620	-4955.4614
-13692	-4257.0024
-10191	-3436.9949
-7462	-2645.2595
-7744	-2040.2249
-11047	-1748.313
-12824	-1835.5835
-8869	-2293.4456
-7788	-3039.9421
-8763	-3943.0857
-12982	-4848.069
-16610	-5611.7866
-10520	-6132.319
-8376	-6362.0127
-8859	-6315.6113
-12758	-6056.049
-14931	-5675.9736
-9326	-5274.038
-7490	-4927.212
-8169	-4685.278
-11686	-4559.289
-13486	-4529.797
-8741	-4552.813
-7333	-4583.5063
-8013	-4589.5747
-11283	-4563.8296
-12802	-4518.526
-8524	-4485.1094
-7114	-4501.763
-8109	-4599.972
-11930	-4793.292
-13274	-5071.768
-8762	-5402.1323
-7169	-5731.7393
-7606	-6000.646
-10636	-6158.5283
-12206	-6177.359
-8517	-6052.801
-7286	-5808.7617
-7828	-5495.731
-10812	-5175.342
-11886	-4909.2163
-8044	-4747.4307
-7170	-4716.8584
-7706	-4808.8267
-10401	-4994.402
-11623	-5226.6436
-8765	-5449.7393
-7977	-5609.8687
-8403	-5666.0986
-11906	-5597.2705
-14277	-5407.116
-9306	-5123.675
-7101	-4788.1787
-7709	-4446.384
-10517	-4148.8906
-11479	-3929.9736
-7786	-3805.0354
-6512	-3769.6868
-7627	-3804.4734
-10162	-3876.2134
-11757	-3944.587
-8312	-3982.1296
-7014	-3970.1328
-7694	-3902.4026
-10803	-3794.298
-12125	-3668.0547
-8108	-3550.7722
-7108	-3468.0059
-7734	-3441.6238
-10322	-3484.036
-11382	-3593.8936
-8105	-3755.6963
-7214	-3950.0337
-8086	-4151.7637
-11550	-4341.6133
-13582	-4503.22
-9159	-4625.8564
-7868	-4704.4346
-8996	-4740.42
-14025	-4740.1665
-18607	-4712.9155
-11742	-4669.944
-9559	-4618.6226
-10655	-4564.3223
-16986	-4509.1963
-24197	-4455.529
-13469	-4411.4873
-9596	-4384.5874
-9749	-4385.4995
-14510	-4425.2246
-17913	-4513.86
-10407	-4658.7915
-8026	-4856.941
-8530	-5099.08
-11901	-5365.784
-13678	-5631.466
-8770	-5868.6978
-7492	-6051.2666
-8073	-6164.202
-11482	-6203.431
-12795	-6179.4478
-8602	-6116.7256
-6982	-6046.838
-7580	-6005.093
-10340	-6022.0273
-11361	-6117.0938
-7709	-6294.1646
-6740	-6538.4155
-7462	-6820.5635
-10116	-7100.3984
-11311	-7335.0835
-7929	-7487.3027
-6752	-7530.5376
-7480	-7456.874
-10221	-7275.629
-11346	-7012.428
-7830	-6704.101
-6917	-6389.803
-7477	-6107.334
-10249	-5883.859
-11363	-5733.5566
-7899	-5656.709
-6820	-5640.5103
-7562	-5665.543
-10296	-5708.923
-11304	-5750.7344
-7758	-5776.794
-6779	-5780.161
-7456	-5761.422
-10218	-5725.283
-11329	-5678.5835
-7841	-5627.0356
-6969	-5571.8003
-7571	-5512.1875
-10397	-5443.815
-11654	-5362.423
-8133	-5267.37
-7007	-5161.773
-7599	-5056.6733
-10451	-4967.058
-11660	-4911.122
-8162	-4905.988
-6891	-4961.9775
-7314	-5081.4277
-10605	-5254.415
-11691	-5460.6685
-7966	-5671.927
-7367	-5854.994
-8187	-5980.105
-11231	-6024.2197
-12612	-5977.2754
-8415	-5843.21
-7010	-5638.648
-7686	-5392.081
-10824	-5136.886
-12141	-4906.28
-8415	-4728.0835
-7140	-4619.009
-7771	-4584.235
-10996	-4616.3423
-12407	-4698.8984
-8313	-4810.3076
-6994	-4926.5903
-7799	-5027.297
-11121	-5096.915
-12637	-5128.0747
-8441	-5122.029
-7021	-5085.876
-7857	-5032.893
-11269	-4979.451
-12830	-4944.8237
-8611	-4950.0713
-7236	-5014.8584
-7926	-5158.228
-11281	-5395.757
-12778	-5738.644
-8499	-6191.3677
-7115	-6747.3335
-7891	-7389.16
-11104	-8085.6514
-12937	-8794.033
-8761	-9463.407
-7219	-10037.848
-7832	-10465.518
-11304	-10703.826
-12884	-10727.349
-8442	-10532.941
-7119	-10138.496
-7890	-9584.593
-11323	-8926.511
-12879	-8228.273
-8511	-7553.764
-7095	-6955.7637
-7990	-6471.224
-11410	-6115.6187
-12791	-5884.048
-8449	-5754.441
-7507	-5691.6133
-8214	-5657.956
-11825	-5617.952
-13931	-5546.5786
-9156	-5433.178
-7253	-5279.4116
-7942	-5099.806
-11247	-4915.779
-13336	-4750.5835
-8807	-4624.502
-7215	-4548.6284
-7906	-4525.9175
-11420	-4549.035
-13176	-4604.157
-8717	-4674.634
-7267	-4742.111
-7892	-4794.695
-11177	-4825.147
-12766	-4832.9707
-8453	-4823.3247
-7211	-4802.8574
-7725	-4781.014
-10951	-4764.291
-12557	-4756.2847
-8461	-4757.3833
-7146	-4763.6265
-7966	-4771.384
-11587	-4776.2837
-13132	-4776.41
-8604	-4773.111
-7311	-4768.8247
-7915	-4769.232
-11397	-4779.032
-13196	-4801.6733
-8834	-4838.1157
-7442	-4884.5137
-8087	-4935.512
-11673	-4982.893
-13349	-5019.073
-8701	-5039.203
-7242	-5040.6196
-8011	-5026.4976
-11489	-5003.29
-13170	-4980.8247
-8776	-4970.297
-8997	-4979.5835
-11381	-5014.4087
-11416	-5075.6494
-12906	-5158.1787
-8656	-5253.369
-7487	-5348.561
-8157	-5431.8506
-12023	-5492.3413
-14040	-5523.9062
-9190	-5526.1704
-7072	-5502.0127
-7754	-5460.0757
-11574	-5410.319
-13507	-5363.2046
-8857	-5328.1875
-7209	-5310.1704
-8049	-5311.392
-11520	-5329.69
-13291	-5360.467
-8884	-5398.7256
-7292	-5438.0107
-8064	-5474.2793
-11700	-5504.56
-13235	-5528.425
-8600	-5547.586
-7423	-5563.004
-8167	-5577.119
-11428	-5590.565
-13194	-5603.3003
-8796	-5615.0654
-7282	-5623.683
-7954	-5628.1665
-11550	-5627.304
-13485	-5621.583
-8815	-5613.4497
-7046	-5604.59
-7924	-5598.498
-11484	-5597.1
-13136	-5601.539
-8764	-5611.6323
-7422	-5623.0996
-8052	-5633.574
-11409	-5638.9585
-13154	-5636.269
-8608	-5624.6533
-7330	-5602.295
-8144	-5574.986
-11267	-5548.9526
-13264	-5531.5195
-8905	-5530.031
-7259	-5547.984
-7907	-5588.83
-11380	-5650.7056
-12980	-5728.1934
-8512	-5813.2124
-7414	-5894.178
-8461	-5961.339
-12079	-6005.558
-13596	-6021.643
-8942	-6009.1274
-7389	-5970.5625
-8115	-5913.6045
-11612	-5847.2744
-13511	-5781.395
-8844	-5725.1704
-7345	-5683.381
-8167	-5658.124
-11663	-5646.55
-13501	-5642.9653
-8859	-5640.7056
-7331	-5631.56
-8051	-5610.245
-11371	-5573.909
-13441	-5523.9956
-8819	-5466.822
-7263	-5410.238
-7991	-5364.695
-11699	-5339.001
-13579	-5339.9863
-8924	-5371.131
-7430	-5429.4917
-8216	-5508.494
-11757	-5596.9243
-13387	-5682.134
-8635	-5752.5923
-7271	-5797.9375
-8056	-5813.544
-11591	-5799.4077
-13430	-5761.6953
-8806	-5712.09
-7306	-5663.7075
-8060	-5631.3364
-11640	-5626.6826
-13541	-5657.66
-8889	-5727.159
-7291	-5830.239
-7947	-5957.36
-11709	-6093.7036
-13566	-6223.034
-8952	-6330.358
-7544	-6402.21
-8304	-6431.1895
-11768	-6414.9463
-13348	-6357.7
-8757	-6269.1934
-7781	-6161.1133
-8573	-6047.929
-12110	-5942.0293
-13168	-5853.8286
-9887	-5789.8887
-7434	-5751.5156
-8250	-5736.7783
-11902	-5739.625
-13619	-5752.683
-8989	-5768.9604
-7599	-5781.1865
-8316	-5785.633
-11656	-5780.377
-13592	-5766.4873
-9179	-5747.691
-7367	-5727.408
-8697	-5710.2285
-11614	-5699.1743
-13507	-5695.7427
-8869	-5700.296
-7258	-5709.9224
-8094	-5721.9077
-11641	-5732.1265
-13353	-5737.2505
-8849	-5735.6313
-7392	-5725.745
-8246	-5709.256
-11081	-5688.499
-15392	-5666.328
-9391	-5647.7207
-7565	-5634.8857
-8146	-5630.406
-11654	-5634.1587
-13531	-5644.682
-8892	-5659.774
-7400	-5674.661
-8277	-5685.955
-11706	-5690.062
-13607	-5685.145
-9032	-5671.801
-7373	-5651.057
-8120	-5627.1587
-11821	-5604.2983
-13789	-5587.418
-8964	-5581.5244
-7513	-5588.6226
-8363	-5610.327
-11686	-5645.1675
-13347	-5690.0303
-8839	-5740.9067
-7476	-5791.6084
-8051	-5837.7144
-10600	-5874.6445
-14854	-5898.9473
-10749	-5910.363
-7499	-5908.965
-8109	-5897.3545
-11732	-5878.0977
-13588	-5854.297
-9072	-5829.4214
-7704	-5804.509
-8520	-5781.572
-11967	-5760.9995
-13681	-5743.218
-8775	-5729.232
-7295	-5718.555
-8194	-5712.605
-11822	-5711.896
-13808	-5717.215
-9177	-5729.4688
-7527	-5747.093
-8126	-5768.9253
-11741	-5791.5615
-13633	-5811.402
-8926	-5825.4004
-7412	-5829.532
-8279	-5822.6475
-12950	-5804.276
-13677	-5777.175
-8917	-5746.043
-7311	-5715.2935
-8141	-5691.023
-11687	-5677.1865
-13626	-5676.2344
-9162	-5688.645
-7618	-5710.783
-8256	-5738.6084
-12014	-5765.985
-13661	-5787.7393
-9929	-5800.597
-7507	-5802.8516
-8236	-5796.992
-11914	-5787.0894
-13792	-5779.253
-9214	-5780.3804
-7813	-5794.389
-8430	-5824.326
-11754	-5868.383
-13512	-5921.169
-8755	-5976.8926
-7282	-6026.215
-7720	-6062.0537
-12879	-6078.1216
-15389	-6072.7974
-11002	-6049.1367
-7647	-6012.7417
-8219	-5972.6875
-11812	-5937.633
-13813	-5914.817
-9077	-5908.585
-7361	-5917.2563
-8073	-5936.431
-11495	-5957.4897
-13016	-5970.88
-8729	-5968.6343
-7513	-5944.569
-8223	-5899.111
-11822	-5837.068
-13889	-5768.336
-9123	-5706.308
-7493	-5663.0444
-8331	-5649.614
-11776	-5670.8994
-13830	-5725.6904
-9362	-5806.9404
-7434	-5900.825
-8281	-5992.074
-11827	-6064.765
-13347	-6106.8477
-8762	-6112.523
-7278	-6081.4
-8162	-6021.535
-11774	-5945.165
-13497	-5867.294
-8794	-5802.784
-7321	-5761.2983
-8226	-5748.3564
-11857	-5761.952
-14305	-5794.662
-9040	-5836.2114
-7341	-5873.349
-8206	-5896.2983
-11737	-5898.404
-13527	-5879.0083
-8860	-5843.8745
-7414	-5801.4087
-8251	-5763.839
-11587	-5741.9937
-13111	-5744.0513
-8473	-5773.8223
-8522	-5827.6387
-9651	-5898.8516
-12689	-5976.327
-15213	-6047.8193
-11165	-6103.121
-7849	-6134.371
-8278	-6139.1675
-11585	-6118.7935
-13383	-6078.7085
-8762	-6027.3027
-7273	-5971.8105
-8061	-5920.102
-11369	-5876.823
-13387	-5844.284
-8801	-5823.252
-7276	-5811.392
-8141	-5807.5957
-11769	-5810.127
-13399	-5818.5244
-8732	-5833.684
-7309	-5854.8555
-8252	-5882.3013
-11613	-5913.894
-13293	-5946.1143
-8762	-5974.4336
-7352	-5992.202
-8156	-5995.301
-11723	-5980.8887
-13497	-5950.063
-8752	-5908.505
-7326	-5863.7607
-8241	-5827.07
-11661	-5808.379
-13379	-5815.317
-8934	-5851.197
-7297	-5911.7188
-8007	-5988.148
-11919	-6066.0503
-13810	-6129.672
-8991	-6165.459
-7523	-6163.0356
-8329	-6121.232
-11857	-6046.351
-13737	-5952.9565
-9034	-5861.4893
-7546	-5792.303
-8290	-5764.6714
-11788	-5789.895
-13616	-5870.0254
-9086	-5997.069
-7723	-6151.9824
-8766	-6310.9326
-12583	-6446.832
-14712	-6535.921
-9825	-6562.2666
-7629	-6518.8975
-8297	-6410.7344
-11807	-6252.496
-13655	-6066.334
-9034	-5878.293
-7655	-5711.7446
-8465	-5586.86
-11942	-5515.0767
-13729	-5499.5166
-8980	-5535.729
-7519	-5611.073
-8328	-5710.7
-11859	-5817.892
-13619	-5917.4736
-8902	-5998.425
-7457	-6051.939
-8309	-6075.0273
-11911	-6067.332
-13718	-6031.78
-9265	-5974.075
-7650	-5900.146
-8316	-5818.8154
-11878	-5738.836
-13759	-5669.6987
-9071	-5621.7217
-7536	-5600.796
-8304	-5612.5347
-11829	-5656.8105
-13617	-5728.553
-8966	-5817.8755
-7397	-5908.918
-8304	-5985.3735
-11880	-6030.887
-13656	-6033.8604
-8969	-5990.7793
-7501	-5905.7417
-8344	-5793.9854
-11935	-5677.452
-13820	-5582.586
-9124	-5535.6587
-7607	-5555.358
-8291	-5651.8037
-11896	-5820.7915
-14252	-6044.8594
-9499	-6296.1113
-7950	-6538.1963
-8844	-6735.5537
-12579	-6857.14
-13928	-6883.53
-9281	-6810.856
-7584	-6648.116
-8457	-6419.545
-12114	-6158.03
-13821	-5899.593
-8927	-5677.588
-7491	-5515.0776
-8344	-5424.782
-11914	-5405.338
-13817	-5444.2803
-9079	-5521.9053
-7455	-5613.668
-8337	-5698.399
-11954	-5759.4614
-13776	-5788.588
-9026	-5786.564
-7534	-5759.425
-8221	-5719.2085
-11875	-5677.7935
-13919	-5645.4688
-8982	-5629.06
-7479	-5628.7554
-8318	-5642.1934
-11794	-5663.2446
-13692	-5685.6543
-8991	-5704.6704
-7496	-5717.206
-8356	-5724.6455
-11918	-5729.7573
-13760	-5736.7397
-8920	-5749.9683
-7569	-5770.1494
-8448	-5797.0293
-12038	-5826.79
-13862	-5854.494
-9051	-5875.7007
-7492	-5886.13
-8327	-5885.6836
-11958	-5877.2964
-13797	-5867.2627
-8987	-5864.351
-7546	-5875.583
-8457	-5907.53
-12195	-5961.747
-13971	-6035.4644
-9167	-6121.829
-7721	-6208.727
-8710	-6284.2495
-12462	-6336.3076
-14767	-6356.72
-9567	-6342.561
-7552	-6294.945
-8321	-6221.537
-11929	-6133.2397
-13631	-6042.4355
-9007	-5961.154
-7382	-5896.945
-8222	-5854.9604
-11817	-5834.9995
-13652	-5833.4946
-8939	-5845.082
-7427	-5862.112
-8302	-5879.287
-11875	-5892.2324
-13611	-5899.5835
-8889	-5902.829
-7267	-5903.2676
-8217	-5904.3135
-11896	-5907.757
-13685	-5914.396
-8886	-5924.105
-7374	-5933.6416
-8226	-5940.7134
-11756	-5942.385
-13531	-5936.9653
-8869	-5924.8496
-7335	-5906.508
-8198	-5885.2334
-11784	-5863.857
-13895	-5845.3467
-9076	-5832.5444
-7409	-5825.414
-8174	-5824.3555
-11741	-5827.868
-13487	-5834.6777
-8713	-5844.702
-7256	-5856.9253
-8009	-5873.5635
-11486	-5896.5356
-13318	-5928.255
-8675	-5971.042
-7416	-6023.9214
-8558	-6085.4
-11914	-6150.69
-13789	-6213.324
-9121	-6266.5586
-7482	-6302.3647
-8420	-6316.0786
-12356	-6304.264
-14736	-6267.511
-9835	-6211.0957
-7660	-6141.18
-8072	-6066.868
-11631	-5996.9707
-13919	-5938.8325
-8911	-5898.094
-7378	-5875.362
-8240	-5869.8193
-11769	-5877.136
-13568	-5891.931
-9023	-5909.2974
-7516	-5923.525
-8170	-5932.28
-11867	-5934.0747
-13695	-5929.607
-8892	-5921.372
-7464	-5910.6943
-8202	-5900.3384
-11761	-5891.2124
-13580	-5883.676
-8912	-5878.0605
-7452	-5872.7607
-8095	-5868.0576
-12007	-5863.628
-13992	-5860.462
-8958	-5860.8813
-7456	-5865.61
-8047	-5876.7065
-11791	-5893.93
-13781	-5915.9326
-8889	-5940.627
-7366	-5963.085
-8207	-5979.6445
-11788	-5986.37
-13629	-5981.5176
-8909	-5966.3516
-7432	-5943.2993
-8311	-5919.0195
-11782	-5900.6133
-13544	-5895.664
-9988	-5910.627
-7469	-5948.006
-8139	-6007.666
-11676	-6084.2637
-13560	-6169.1597
-9264	-6251.829
-7783	-6319.59
-8372	-6362.781
-12312	-6373.6904
-14182	-6349.588
-9509	-6293.299
-7340	-6210.701
-7967	-6112.6826
-11906	-6010.835
-13948	-5916.804
-9150	-5840.824
-7631	-5787.937
-8335	-5760.794
-11792	-5756.907
-13961	-5770.85
-9338	-5795.971
-7584	-5823.49
-8557	-5847.125
-12195	-5861.523
-13689	-5864.3516
-9068	-5856.3745
-7699	-5838.892
-8560	-5816.3726
-12158	-5792.723
-14167	-5771.9614
-9306	-5757.954
-7633	-5751.686
-8369	-5754.3833
-11986	-5765.0303
-14068	-5781.9736
-9226	-5803.5083
-7464	-5825.728
-8552	-5845.9785
-12334	-5860.5303
-14106	-5866.239
-9462	-5861.061
-7826	-5842.2944
-8467	-5810.346
-12111	-5766.397
-14035	-5714.152
-9147	-5660.1665
-7561	-5610.99
-8479	-5575.7056
-12133	-5562.0024
-14471	-5576.1445
-9441	-5622.272
-7557	-5698.767
-8342	-5801.239
-12009	-5920.0806
-13760	-6043.0903
-9114	-6157.232
-8014	-6248.175
-8859	-6306.2236
-12525	-6324.91
-14495	-6303.485
-9581	-6247.28
-8635	-6164.563
-8349	-6068.7056
-11976	-5972.5107
-13940	-5887.967
-9298	-5824.515
-7627	-5785.6387
-8381	-5771.8047
-11969	-5778.131
-13918	-5797.234
-9130	-5821.3247
-7657	-5841.583
-8086	-5853.264
-13408	-5853.2017
-14458	-5842.7603
-9359	-5826.3154
-7628	-5808.23
-8487	-5794.645
-12178	-5789.37
-14185	-5794.3477
-9459	-5809.4556
-7822	-5830.368
-8458	-5852.9507
-12273	-5871.3657
-14117	-5881.083
-8965	-5880.2036
-7699	-5867.409
-8672	-5845.7134
-12201	-5819.0596
-14209	-5792.6787
-9307	-5772.412
-7638	-5761.122
-8377	-5761.463
-11957	-5772.6724
-13929	-5792.4204
-9108	-5817.823
-7654	-5843.9653
-8586	-5868.295
-12337	-5888.5366
-14199	-5904.4844
-9244	-5918.0874
-7781	-5930.476
-8506	-5944.714
-12049	-5961.9805
-13969	-5982.4595
-9142	-6005.3623
-7941	-6026.7417
-8629	-6043.7285
-12234	-6052.3735
-13535	-6050.2827
-10226	-6037.02
-7886	-6013.2583
-8428	-5983.3213
-12003	-5951.964
-13943	-5924.715
-9123	-5907.133
-7623	-5901.4966
-8481	-5909.4404
-12106	-5929.135
-14107	-5956.9653
-9401	-5988.6987
-7516	-6018.2925
-8337	-6042.0903
-11826	-6057.078
-14071	-6062.564
-9296	-6060.626
-7689	-6053.149
-8603	-6044.279
-12135	-6036.9526
-14094	-6033.3394
-9408	-6034.8477
-7957	-6039.791
-8819	-6047.211
-12050	-6054.765
-15713	-6060.3247
-9441	-6064.3975
-7597	-6066.4165
-8369	-6068.5864
-11957	-6072.5312
-13921	-6079.9067
-9146	-6091.9897
-7631	-6106.627
-8446	-6121.767
-11951	-6133.061
-13932	-6136.1323
-9079	-6128.1777
-7569	-6106.7744
-8724	-6074.119
-12250	-6034.617
-14127	-5995.766
-9357	-5967.2217
-7766	-5956.679
-8377	-5971.3154
-11927	-6013.1816
-13842	-6079.618
-9191	-6163.669
-7641	-6252.524
-8403	-6332.8237
-11209	-6390.663
-15424	-6414.5635
-11016	-6399.6475
-7954	-6345.9717
-8836	-6261.4707
-12171	-6158.8447
-13909	-6054.2744
-9117	-5964.862
-7535	-5903.2183
-8362	-5878.7847
-11959	-5893.3354
-13997	-5942.2324
-9083	-6015.9604
-7534	-6099.745
-8409	-6179.6157
-11932	-6242.4736
-13976	-6279.676
-9361	-6288.545
-7706	-6270.262
-8476	-6232.2314
-12227	-6183.4053
-14119	-6133.767
-9316	-6092.4365
-7771	-6063.801
-8459	-6050.1997
-12207	-6049.2
-14168	-6056.2837
-9374	-6066.2905
-7815	-6072.727
-8473	-6072.6343
-12086	-6064.2393
-14243	-6048.6567
-9379	-6029.6284
-7538	-6010.1934
-8237	-5994.981
-11674	-5986.468
-13766	-5985.7393
-9716	-5992.683
-7460	-6004.542
-8395	-6019.24
-11912	-6033.862
-13989	-6046.5356
-9368	-6057.2314
-7769	-6065.51
-8495	-6072.8057
-12000	-6080.22
-13957	-6088.5244
-9143	-6098.3096
-7900	-6107.4365
-8170	-6114.8965
-12975	-6117.95
-15409	-6115.169
-10758	-6106.6333
-7857	-6092.3804
-8493	-6074.772
-12021	-6056.027
-13957	-6038.59
-9062	-6024.672
-7581	-6013.4688
-8399	-6004.6523
-11926	-5995.827
-13695	-5984.8423
-9107	-5971.044
-7661	-5953.776
-8336	-5936.4746
-11961	-5923.767
-14024	-5921.9414
-9226	-5937.986
-7759	-5975.5264
-8439	-6036.4355
-11831	-6116.9185
-13806	-6208.7427
-9149	-6300.448
-7372	-6376.901
-8282	-6425.219
-11831	-6434.8965
-13509	-6401.6045
-8824	-6328.726
-7334	-6225.0522
-8187	-6106.8315
-11796	-5992.217
-13699	-5899.028
-8981	-5841.622
-7486	-5825.8823
-8190	-5851.099
-11802	-5907.49
-14079	-5979.6265
-8971	-6050.25
-7383	-6101.5234
-8244	-6122.361
-11624	-6108.303
-13382	-6063.802
-8707	-6001.7017
-7316	-5938.094
-8260	-5892.292
-11617	-5879.7876
-13411	-5909.835
-8626	-5983.536
-8915	-6090.7285
-9426	-6216.009
-12421	-6338.1196
-14984	-6435.556
-10904	-6491.411
-7817	-6494.776
-8275	-6445.2256
-11634	-6350.1206
-13374	-6225.0957
-8744	-6090.362
-7316	-5964.893
-8118	-5866.1533
-11495	-5804.6504
-13817	-5783.7085
-8920	-5800.353
-7346	-5844.238
-8268	-5903.7686
-11726	-5966.115
-13576	-6021.447
-8956	-6063.731
-7441	-6090.4062
-8319	-6104.31
-11795	-6109.5933
-13682	-6111.2495
-8974	-6113.8423
-7531	-6118.075
-8387	-6124.0137
-11850	-6128.812
-13666	-6129.2476
-8868	-6123.105
-7382	-6108.0327
-8282	-6085.6763
-11834	-6058.419
-13674	-6030.2173
-8914	-6005.806
-7485	-5986.993
-8414	-5975.4326
-12114	-5969.521
-13767	-5966.4043
-8902	-5963.2534
-7429	-5956.279
-8337	-5945.633
-11922	-5933.3027
-13831	-5924.549
-9004	-5927.333
-7421	-5948.281
-8233	-5994.158
-11677	-6066.9243
-13405	-6163.937
-8749	-6277.748
-7349	-6394.6006
-8376	-6499.7886
-12161	-6577.3228
-14113	-6614.5317
-9489	-6604.4883
-7572	-6545.913
-8426	-6445.514
-11897	-6315.7554
-13634	-6173.371
-8902	-6036.873
-7446	-5921.2983
-8261	-5839.24
-11895	-5796.3174
-13729	-5792.225
-8941	-5821.6
-7454	-5873.1875
-8352	-5935.3384
-11971	-5995.463
-13816	-6043.086
-8942	-6071.506
-7430	-6075.724
-8326	-6056.0503
-11876	-6014.773
-13651	-5956.752
-9002	-5888.993
-7491	-5817.638
-8284	-5750.8364
-11766	-5695.4326
-13662	-5657.7163
-8915	-5643.4976
-7408	-5653.668
-8232	-5688.6875
-11696	-5744.0117
-13631	-5811.595
-8904	-5880.9473
-7637	-5938.0728
-8669	-5971.1772
-11909	-5970.356
-13748	-5931.2046
-9009	-5857.0254
-7422	-5756.975
-8245	-5648.747
-11736	-5553.411
-13574	-5493.186
-8971	-5487.7803
-7539	-5548.0005
-8334	-5676.2505
-11653	-5862.394
-13869	-6085.8726
-9161	-6318.9937
-7647	-6528.967
-8641	-6686.5425
-12412	-6768.4917
-14533	-6762.9175
-9561	-6672.3237
-7382	-6509.477
-8197	-6299.2183
-11761	-6071.9067
-13686	-5858.3867
-8807	-5685.6704
-7372	-5570.2773
-8289	-5519.47
-11751	-5528.4414
-13606	-5583.583
-8794	-5666.414
-7331	-5755.272
-8231	-5832.9956
-11667	-5887.088
-13680	-5912.528
-8991	-5912.0894
-7456	-5892.196
-8197	-5863.775
-11614	-5836.6646
-13936	-5818.3906
-9091	-5813.2534
-7547	-5819.538
-8422	-5833.8857
-11734	-5850.2144
-13693	-5863.053
-8874	-5869.539
-7375	-5868.0625
-8272	-5861.771
-11761	-5854.908
-13772	-5852.6587
-9014	-5859.777
-7619	-5876.635
-8377	-5902.1724
-11726	-5931.2305
-13645	-5956.827
-8907	-5972.3945
-7414	-5971.2017
-8258	-5951.2183
-11712	-5913.9736
-13692	-5865.235
-8899	-5814.7114
-7355	-5771.678
-8116	-5746.354
-11899	-5744.979
-13995	-5769.811
-9051	-5818.921
-7692	-5883.9517
-8514	-5955.2866
-12062	-6020.896
-14646	-6070.408
-9578	-6096.9517
-7483	-6096.3813
-8161	-6070.8
-11814	-6025.865
-13787	-5970.1987
-8956	-5914.159
-7419	-5865.64
-8270	-5832.063
-11723	-5816.578
-13676	-5819.1846
-8902	-5837.5044
-7412	-5865.315
-8262	-5897.0405
-11681	-5926.201
-13611	-5947.81
-8887	-5959.246
-7340	-5958.0825
-8321	-5945.476
-11910	-5923.0444
-13849	-5893.8545
-9041	-5862.345
-7461	-5831.402
-8267	-5805.4863
-11747	-5787.679
-13747	-5780.525
-8907	-5786.208
-7404	-5803.8223
-8233	-5832.4907
-11016	-5868.7324
-15956	-5906.9155
-9471	-5942.6807
-7373	-5969.0522
-8169	-5981.6963
-11612	-5977.1865
-13490	-5955.26
-8669	-5919.5425
-7132	-5874.843
-7968	-5830.2495
-11514	-5794.753
-13516	-5777.0293
-8943	-5784.2373
-7687	-5818.1772
-8515	-5877.993
-11809	-5957.3413
-13831	-6046.4287
-9289	-6134.052
-7752	-6207.0645
-8480	-6255.977
-12212	-6272.9033
-14502	-6255.329
-9419	-6206.623
-7450	-6132.4155
-8276	-6042.759
-11724	-5948.7397
-13897	-5860.9565
-8849	-5788.829
-7391	-5736.8516
-8292	-5707.7275
-11642	-5699.874
-13537	-5709.483
-8728	-5732.0757
-7330	-5760.8584
-8242	-5791.5537
-11577	-5820.0874
-13536	-5844.06
-8866	-5863.189
-7464	-5876.4844
-8192	-5885.2485
-11840	-5889.8726
-13811	-5891.017
-8742	-5890.0327
-7263	-5886.3735
-8076	-5881.392
-11859	-5875.5283
-13760	-5869.933
-8821	-5866.6006
-7416	-5865.574
-8040	-5868.22
-11652	-5873.935
-13777	-5881.4365
-8924	-5889.3735
-7356	-5894.0664
-8202	-5893.6157
-11633	-5885.736
-13509	-5869.8003
-8764	-5847.5864
-7306	-5821.136
-8181	-5795.8535
-11611	-5777.0176
-13427	-5770.2656
-8811	-5780.84
-7290	-5810.33
-7964	-5859.3853
-11599	-5924.509
-13623	-5999.7476
-8685	-6077.833
-7291	-6148.644
-8179	-6204.071
-11788	-6236.4805
-13755	-6241.2354
-8893	-6217.823
-7186	-6167.696
-8764	-6097.0786
-11645	-6014.2734
-13619	-5928.867
-8983	-5851.2363
-7645	-5788.702
-8309	-5747.8843
-11482	-5731.045
-13607	-5737.093
-9107	-5762.3447
-7631	-5798.9556
-8288	-5839.4966
-11746	-5875.4507
-13620	-5900.081
-9141	-5909.8647
-7740	-5903.002
-8482	-5882.9985
-11979	-5855.3066
-13869	-5827.6836
-9053	-5809.1606
-7579	-5805.9697
-8319	-5823.447
-11650	-5862.1553
-13697	-5918.667
-9064	-5986.371
-7392	-6054.0273
-8447	-6110.74
-11834	-6145.371
-13683	-6149.725
-9077	-6120.5806
-7454	-6058.2812
-8369	-5970.1562
-11635	-5866.9834
-13482	-5762.6284
-8944	-5672.461
-7611	-5608.563
-8402	-5581.189
-11609	-5594.572
-13802	-5647.4395
-8986	-5734.0396
-7615	-5842.6084
-8502	-5960.6245
-11802	-6074.097
-13737	-6170.764
-8679	-6242.281
-7430	-6282.219
-8416	-6290.226
-11719	-6268.78
-14067	-6223.3213
-9459	-6161.7715
-7756	-6090.771
-8186	-6018.1396
-11569	-5949.3506
-13715	-5888.2827
-9112	-5837.8467
-7669	-5797.8057
-8379	-5768.7505
-11511	-5749.6113
-13554	-5739.1934
-8949	-5736.999
-7453	-5740.771
-7987	-5749.9756
-11975	-5762.632
-13596	-5777.177
-9083	-5792.5347
-7602	-5806.015
-8273	-5816.9644
-11495	-5824.1567
-13408	-5827.2183
-8992	-5827.1045
-7821	-5823.433
-8542	-5818.1577
-11514	-5812.314
-13341	-5806.909
-8587	-5803.396
-7428	-5800.8384
-8434	-5799.658
-11609	-5798.9194
-13433	-5797.6475
-8798	-5795.5874
-7398	-5790.854
-8237	-5783.6484
-11536	-5773.447
-13772	-5760.2583
-9200	-5745.2666
-7484	-5728.2324
-8157	-5710.8867
-11490	-5694.1455
-13469	-5679.419
-8866	-5669.025
-7419	-5663.5776
-8212	-5665.328
-11564	-5675.0815
-13386	-5693.318
-8811	-5720.157
-7418	-5752.948
-8329	-5789.9253
-12073	-5827.296
-13062	-5861.622
-10083	-5889.6465
-7664	-5907.896
-8368	-5915.7065
-11686	-5913.2256
-13668	-5902.4614
-8984	-5887.4883
-7689	-5871.454
-8522	-5859.4683
-11495	-5855.0176
-13430	-5860.3296
-8829	-5876.6167
-7236	-5901.483
-8130	-5932.6084
-11497	-5965.586
-13394	-5995.9478
-8822	-6020.4014
-7401	-6035.0786
-8173	-6039.4165
-11320	-6033.537
-13448	-6019.1274
-9083	-5999.5747
-7518	-5977.045
-8199	-5955.201
-11519	-5935.9634
-13676	-5920.488
-8867	-5909.7754
-7583	-5902.1606
-8207	-5897.446
-11422	-5894.2324
-13382	-5891.515
-8809	-5890.0303
-7268	-5887.8774
-8064	-5886.505
-11515	-5886.1885
-13474	-5887.2397
-8572	-5890.4497
-7157	-5894.435
-8174	-5899.311
-11317	-5904.1836
-13349	-5908.459
-8880	-5912.646
-7532	-5916.0405
-8275	-5920.1665
-11206	-5925.821
-13038	-5933.9644
-8643	-5945.883
-7392	-5960.44
-8352	-5977.324
-10264	-5994.749
-14312	-6009.5625
-10557	-6019.7085
-7471	-6022.0327
-8233	-6015.445
-11324	-5999.303
-13269	-5974.387
-8804	-5943.548
-7362	-5908.9014
-8169	-5875.0674
-11229	-5845.6255
-13131	-5823.725
-8536	-5812.229
-7320	-5810.7812
-8286	-5819.371
-11272	-5835.646
-13292	-5856.3135
-8937	-5878.308
-7351	-5896.8555
-8070	-5909.361
-11302	-5913.0854
-13419	-5906.743
-8846	-5891.1377
-7352	-5866.673
-7959	-5836.8613
-11396	-5804.877
-13549	-5774.644
-8694	-5750.781
-7187	-5735.567
-8016	-5731.995
-11138	-5740.524
-12952	-5760.159
-8584	-5788.736
-7254	-5820.92
-7929	-5852.3306
-10883	-5877.4307
-12725	-5891.5303
-8576	-5892.1035
-7584	-5877.2163
-8450	-5849.334
-11484	-5812.435
-13267	-5772.6675
-8707	-5737.925
-7351	-5714.29
-8151	-5708.223
-11151	-5722.7866
-13009	-5758.2075
-8356	-5812.0967
-7142	-5877.408
-7581	-5947.2104
-11806	-6012.403
-14709	-6064.9473
-10404	-6099.5757
-7476	-6112.404
-8208	-6103.8413
-11394	-6076.34
-13237	-6034.2554
-8737	-5984.031
-7349	-5930.258
-8066	-5878.381
-11126	-5831.359
-12839	-5790.923
-8602	-5758.1816
-7393	-5731.8403
-8033	-5712.312
-11009	-5699.4585
-13074	-5693.9263
-8862	-5697.428
-7419	-5710.064
-8014	-5732.843
-11048	-5764.4053
-13231	-5801.8203
-8859	-5841.2056
-7254	-5875.939
-8145	-5900.8765
-11204	-5910.9326
-12777	-5903.438
-8399	-5879.25
-7081	-5840.6694
-7939	-5794.3975
-11021	-5747.8354
-12797	-5708.491
-8342	-5682.9834
-7087	-5673.291
-7971	-5679.401
-10773	-5696.916
-12686	-5718.797
-8423	-5737.731
-7095	-5745.702
-7819	-5739.153
-10881	-5717.4844
-12696	-5684.7085
-8427	-5649.2603
-7102	-5619.907
-7772	-5607.2695
-10751	-5618.5474
-12649	-5656.8374
-8199	-5720.6934
-8323	-5801.248
-8377	-5888.182
-11581	-5967.6406
-14464	-6026.4653
-10362	-6055.72
-7440	-6050.028
-7855	-6011.234
-10859	-5945.8213
-12551	-5864.6504
-8304	-5780.9614
-7098	-5705.6426
-7858	-5648.621
-10706	-5614.6357
-12831	-5603.8486
-8484	-5613.241
-7101	-5635.3784
-7886	-5663.759
-10956	-5691.8726
-12748	-5715.756
-8430	-5734.4453
-7121	-5747.879
-7925	-5758.8315
-10960	-5769.0244
-12716	-5779.0337
-8323	-5788.052
-7224	-5791.522
-7940	-5785.5425
-10871	-5765.47
-12613	-5728.8496
-8329	-5677.217
-7164	-5614.2446
-7963	-5548.9507
-10942	-5491.4136
-12777	-5451.9077
-8366	-5439.1436
-7165	-5455.648
-7839	-5500.0864
-10852	-5564.389
-12671	-5636.3677
-8302	-5702.654
-7045	-5749.2397
-7971	-5767.991
-10961	-5756.288
-12604	-5718.926
-8366	-5667.796
-7116	-5617.4727
-7935	-5585.34
-10869	-5585.248
-12518	-5625.4263
-8119	-5706.7573
-6711	-5820.053
-7854	-5950.5054
-11191	-6077.9434
-13184	-6181.728
-9106	-6244.805
-7451	-6255.682
-8054	-6212.0464
-10887	-6120.1646
-12657	-5993.709
-8399	-5851.7695
-8536	-5712.7827
-12991	-5594.515
-10939	-5511.2236
-12487	-5468.735
-8384	-5467.2017
-7197	-5499.068
-8002	-5554.3335
-10871	-5620.2935
-12567	-5684.7876
-8359	-5738.5117
-7128	-5773.8228
-7892	-5788.355
-10884	-5781.9443
-12606	-5756.984
-8584	-5718.007
-7337	-5668.5967
-7977	-5614.2495
-10874	-5559.457
-12666	-5508.689
-8307	-5466.6772
-7050	-5435.6895
-7966	-5418.6963
-10998	-5415.887
-12651	-5425.556
-8424	-5444.1875
-7361	-5464.4644
-8171	-5479.6904
-10790	-5482.5693
-12504	-5467.8687
-8276	-5434.598
-7047	-5384.8877
-7948	-5327.7363
-10952	-5275.345
-12549	-5242.358
-8389	-5243.647
-7130	-5288.942
-7966	-5383.4575
-10607	-5523.52
-12547	-5697.0474
-8599	-5885.5146
-7224	-6064.309
-8112	-6209.655
-11361	-6300.2134
-13312	-6321.863
-8862	-6271.727
-7398	-6154.923
-7884	-5988.075
-10738	-5794.568
-12509	-5600.6035
-8279	-5431.7876
-7081	-5306.6284
-7881	-5237.031
-10697	-5224.353
-12276	-5260.864
-8282	-5332.252
-7072	-5418.6406
-8005	-5501.562
-10816	-5564.812
-12294	-5598.12
-8306	-5598.948
-7058	-5570.055
-7539	-5521.3833
-11802	-5464.689
-12519	-5412.9854
-8326	-5377.2295
-7117	-5362.6343
-7901	-5371.1274
-10603	-5398.8535
-12198	-5438.3486
-8352	-5480.6475
-7243	-5515.2266
-7856	-5535.5093
-10537	-5537.324
-11860	-5520.7324
-9414	-5489.7915
-7362	-5450.715
-7814	-5412.394
-10593	-5382.4575
-12206	-5366.7793
-8242	-5368.639
-7028	-5385.903
-7694	-5414.4873
-10574	-5446.5957
-12218	-5473.5923
-8288	-5488.233
-7164	-5484.322
-7642	-5461.5684
-10442	-5423.531
-12316	-5378.682
-8454	-5339.8843
-7235	-5320.1597
-7871	-5333.5225
-10944	-5389.392
-13312	-5491.815
-8836	-5638.1807
-7295	-5816.494
-7763	-6009.8286
-10478	-6196.452
-12006	-6353.194
-8206	-6459.719
-7024	-6500.0044
-7794	-6468.132
-10520	-6367.035
-12109	-6209.3037
-8185	-6015.698
-7062	-5809.9023
-7951	-5617.675
-10669	-5460.43
-12157	-5353.0576
-8168	-5302.2363
-6941	-5303.803
-7883	-5347.1724
-10605	-5415.578
-12142	-5490.483
-8204	-5555.552
-7054	-5597.365
-7921	-5610.7505
-10641	-5596.758
-12156	-5562.488
-8211	-5519.4736
-6996	-5478.7886
-7756	-5451.275
-10159	-5442.8784
-13401	-5453.8857
-8255	-5480.902
-6709	-5514.5347
-7452	-5545.2617
-10014	-5563.3813
-11501	-5562.279
-7853	-5540.569
-6851	-5500.4683
-7730	-5450.4375
-10426	-5401.122
-12072	-5364.1016
-8571	-5349.848
-7984	-5363.5933
-7874	-5407.528
-10411	-5477.251
-12089	-5563.8584
-8363	-5655.88
-7179	-5739.2295
-7982	-5802.7847
-11162	-5836.9126
-13229	-5837.1924
-8584	-5804.901
-7160	-5743.775
-7749	-5662.755
-10249	-5572.4478
-12149	-5483.5234
-8166	-5406.0586
-7066	-5346.205
-7957	-5308.6875
-10662	-5294.2246
-12117	-5300.969
-8137	-5325.5933
-7034	-5361.709
-7784	-5404.1416
-10401	-5447.039
-12094	-5485.332
-8174	-5515.6543
-7019	-5534.391
-7726	-5540.9497
-10285	-5535.275
-11937	-5518.739
-8044	-5494.572
-6961	-5465.442
-7532	-5436.364
-10208	-5411.438
-11973	-5394.513
-8151	-5388.982
-7032	-5395.0537
-7606	-5412.58
-10278	-5438.285
-11987	-5467.19
-8148	-5493.7554
-7102	-5510.5845
-7854	-5512.894
-10431	-5496.9775
-11967	-5462.262
-8114	-5412.1616
-7117	-5351.862
-7877	-5290.879
-10299	-5239.265
-11727	-5206.835
-8054	-5201.9424
-7027	-5227.912
-7831	-5285.0005
-10661	-5367.576
-11724	-5465.8975
-7949	-5567.5107
-6916	-5657.372
-7794	-5723.143
-10764	-5754.889
-12455	-5747.736
-8114	-5703.3813
-6790	-5627.6357
-7764	-5532.4155
-10383	-5431.699
-12094	-5339.732
-8689	-5269.1533
-7405	-5227.0005
-7782	-5216.694
-10510	-5235.009
-12362	-5272.6836
-8618	-5320.7207
-7273	-5366.7188
-7914	-5401.213
-10556	-5417.312
-12120	-5412.891
-8581	-5391.2256
-7461	-5358.1772
-8026	-5323.5884
-10823	-5296.621
-12422	-5284.8154
-8573	-5292.744
-7263	-5319.045
-7852	-5359.3604
-10634	-5404.8945
-12425	-5445.2207
-8622	-5470.809
-7176	-5472.9644
-8032	-5448.434
-11030	-5397.8354
-12616	-5326.729
-8723	-5245.0513
-7391	-5163.4785
-7951	-5094.4985
-10748	-5047.8384
-12503	-5030.147
-8514	-5044.71
-7222	-5088.8843
-7908	-5157.8706
-10612	-5243.4004
-12504	-5336.1436
-8677	-5427.7544
-7267	-5509.964
-7806	-5578.1973
-10536	-5629.384
-12071	-5662.822
-8413	-5680.1367
-7402	-5682.3364
-8088	-5672.34
-10891	-5652.139
-12865	-5623.509
-8908	-5588.691
-7316	-5548.387
-7982	-5505.097
-10862	-5460.7324
-12611	-5417.824
-8531	-5379.697
-7253	-5347.8574
-7852	-5324.7695
-10556	-5310.8555
-12460	-5305.295
-8781	-5306.619
-7315	-5310.912
-7836	-5315.0635
-10643	-5315.181
-12713	-5308.1787
-8714	-5293.171
-7415	-5269.468
-8002	-5239.4907
-10653	-5206.1865
-12432	-5173.697
-8767	-5146.302
-7582	-5126.92
-8064	-5118.645
-10874	-5122.008
-12431	-5136.112
-8267	-5159.3394
-7255	-5187.42
-7901	-5217.167
-10464	-5244.651
-12353	-5266.711
-8632	-5281.889
-7341	-5288.72
-7994	-5287.647
-10755	-5279.8228
-12566	-5267.078
-8722	-5252.19
-7485	-5236.437
-7845	-5222.3457
-10487	-5211.065
-12197	-5203.4355
-8581	-5200.408
-7306	-5201.159
-7884	-5206.0093
-10548	-5214.176
-12009	-5225.087
-8452	-5238.649
-7269	-5253.3726
-8051	-5269.317
-11079	-5285.772
-11914	-5302.6987
-9792	-5320.0806
-7742	-5337.1846
-8273	-5354.7163
-10649	-5372.615
-12221	-5390.8345
-8591	-5409.785
-7314	-5428.377
-7918	-5446.7534
-10608	-5464.1387
-12368	-5479.8877
-8801	-5494.0674
-7306	-5505.593
-7872	-5514.914
-10764	-5521.7954
-12512	-5526.365
-8837	-5529.5645
-7468	-5531.059
-8027	-5531.9287
-10755	-5532.374
-12407	-5532.6885
-8644	-5533.8667
-7271	-5535.575
-7884	-5538.9185
-10516	-5544.2056
-12327	-5551.771
-8632	-5562.495
-7547	-5575.4697
-8044	-5590.7666
-10587	-5606.9424
-12258	-5621.988
-8556	-5634.3687
-7359	-5640.119
-7953	-5637.7544
-10681	-5625.3857
-12368	-5602.343
-8468	-5570.166
-7186	-5530.5356
-8084	-5487.8696
-10673	-5446.897
-12274	-5412.8228
-8605	-5391.1143
-7294	-5384.6387
-7856	-5395.7417
-10525	-5423.3994
-12054	-5464.8765
-8273	-5515.9346
-7137	-5569.488
-8204	-5619.387
-9784	-5659.6436
-14247	-5684.8223
-10867	-5693.181
-7522	-5684.192
-7891	-5660.719
-10601	-5626.6084
-12242	-5586.947
-8552	-5547.767
-7416	-5512.9644
-8081	-5486.8516
-10721	-5471.4126
-12348	-5467.213
-8424	-5474.204
-7239	-5489.8374
-7994	-5512.388
-10726	-5538.934
-12472	-5566.6533
-8685	-5593.521
-7388	-5616.1216
-7885	-5632.6655
-10471	-5640.676
-12012	-5638.266
-8434	-5624.9165
-7201	-5599.7905
-7481	-5565.0356
-10207	-5523.396
-11989	-5479.429
-8370	-5439.441
-7285	-5408.5234
-7897	-5392.527
-10516	-5394.545
-12404	-5415.0107
-8850	-5451.731
-7438	-5497.871
-8101	-5545.491
-10766	-5584.709
-11977	-5606.589
-9159	-5605.0386
-7244	-5577.088
-7839	-5525.781
-10566	-5458.172
-12307	-5385.322
-8676	-5321.0063
-7397	-5277.2124
-7901	-5264.3857
-10425	-5287.233
-11867	-5344.5654
-8284	-5429.561
-6844	-5529.325
-7557	-5629.2783
-11375	-5713.621
-14387	-5769.484
-10409	-5790.009
-7484	-5773.416
-7989	-5725.4023
-10808	-5656.107
-12392	-5578.883
-8748	-5508.167
-7469	-5454.7925
-8083	-5426.5557
-10586	-5425.1655
-11922	-5447.27
-8544	-5485.751
-7452	-5529.8584
-8153	-5570.2715
-10599	-5599.019
-12039	-5611.7324
-8689	-5608.5146
-7391	-5591.763
-7778	-5567.481
-10382	-5541.4575
-11962	-5518.7803
-8550	-5502.903
-7110	-5493.445
-7872	-5489.0425
-10736	-5486.2544
-12077	-5481.987
-8260	-5474.9146
-7048	-5464.2983
-7838	-5452.934
-10534	-5444.397
-11907	-5442.64
-8297	-5450.82
-7109	-5468.2603
-7673	-5492.549
-10119	-5517.4746
-11946	-5535.117
-8470	-5538.228
-7132	-5520.4443
-7822	-5481.0317
-10526	-5423.811
-12016	-5358.156
-8307	-5298.1123
-7024	-5257.8633
-7674	-5251.5312
-10309	-5287.843
-11966	-5368.628
-8037	-5488.1514
-7865	-5631.298
-8111	-5779.204
-11502	-5909.595
-14579	-6002.221
-10473	-6043.6646
-7541	-6027.557
-7787	-5958.1646
-10421	-5847.9526
-12003	-5715.9023
-8440	-5584.236
-7225	-5472.339
-7837	-5395.933
-10305	-5362.109
-12211	-5369.2856
-8577	-5408.7188
-7418	-5464.6455
-7972	-5520.581
-10498	-5560.7295
-12012	-5573.9185
-8428	-5555.878
-7186	-5507.6284
-7938	-5437.5405
-10603	-5356.951
-12100	-5278.5464
-8436	-5214.254
-7306	-5171.2925
-8001	-5154.101
-10553	-5162.26
-11949	-5192.435
-8369	-5239.9395
-7192	-5298.2944
-7861	-5363.0947
-10486	-5429.9336
-11919	-5495.369
-8454	-5556.703
-7289	-5609.254
-7664	-5648.9995
-10389	-5670.4033
-12099	-5668.403
-8500	-5640.258
-7186	-5585.014
-7883	-5507.5913
-10531	-5416.967
-11927	-5326.726
-8480	-5253.363
-7370	-5211.8477
-7960	-5215.288
-10541	-5269.937
-12076	-5374.265
-8362	-5518.865
-7215	-5685.6597
-8001	-5853.182
-10917	-5998.235
-12812	-6100.8525
-8767	-6148.2227
-7331	-6135.3574
-7809	-6067.209
-10532	-5956.705
-11918	-5822.293
-8433	-5684.8027
-7014	-5561.8105
-8115	-5466.999
-10491	-5406.71
-11977	-5380.221
-8391	-5381.483
-7206	-5399.402
-7791	-5423.3076
-10377	-5443.4844
-11966	-5453.7617
-8502	-5452.5264
-7219	-5440.487
-7798	-5421.9873
-10075	-5401.308
-14189	-5381.1855
-8907	-5364.297
-7270	-5349.0635
-7767	-5333.909
-10339	-5316.225
-11707	-5294.621
-8359	-5270.195
-7168	-5244.956
-7859	-5223.973
-10474	-5211.862
-11773	-5212.2363
-8322	-5226.3335
-7234	-5250.2983
-7956	-5278.0513
-10421	-5300.461
-11891	-5308.462
-8369	-5296.0522
-7111	-5260.7964
-7759	-5208.1035
-10391	-5149.0996
-11862	-5099.9653
-8456	-5079.4478
-7264	-5103.09
-7930	-5181.9077
-10220	-5317.304
-11920	-5500.252
-8724	-5712.3535
-7234	-5926.771
-7961	-6114.891
-11086	-6249.398
-13194	-6310.0654
-9257	-6289.1504
-7267	-6189.0493
-7741	-6025.772
-10376	-5824.5806
-11961	-5615.1733
-8412	-5427.138
-7221	-5283.0654
-7851	-5197.5996
-10361	-5173.4946
-11779	-5203.0127
-8353	-5270.716
-7137	-5355.377
-7760	-5437.0933
-10361	-5498.9556
-11813	-5530.831
-8329	-5530.89
-7139	-5503.0947
-7789	-5457.949
-10919	-5407.3037
-11923	-5362.801
-8452	-5333.1416
-7295	-5321.105
-7836	-5325.9375
-10476	-5342.15
-11884	-5362.494
-8296	-5380.098
-7081	-5388.5186
-7747	-5385.7153
-10159	-5372.2427
-11208	-5351.7764
-9346	-5329.698
-7424	-5310.9634
-7877	-5300.316
-10419	-5299.7485
-11794	-5308.999
-8341	-5326.157
-7214	-5346.97
-7775	-5367.9297
-10286	-5386.04
-11747	-5399.939
-8321	-5410.589
-7089	-5419.168
-7551	-5429.102
-10289	-5442.916
-11934	-5462.429
-8604	-5488.413
-7455	-5518.5024
-8073	-5549.8667
-10872	-5577.7915
-13096	-5597.343
-8929	-5604.849
-7367	-5596.2095
-7712	-5570.8545
-10231	-5530.044
-11619	-5476.9795
-8539	-5416.9307
-7233	-5355.3228
-7729	-5299.4497
-10277	-5255.6934
-11679	-5229.7715
-8327	-5226.329
-7174	-5246.6235
-7656	-5290.506
-10013	-5354.2456
-11371	-5431.518
-8094	-5514.29
-6762	-5591.992
-7592	-5654.9697
-10442	-5694.1797
-11990	-5703.543
-8482	-5681.312
-7167	-5628.8955
-7787	-5553.2744
-10392	-5464.3726
-11865	-5374.2666
-8479	-5295.5703
-7136	-5237.7524
-7814	-5207.7207
-10377	-5206.6724
-12186	-5230.649
-8736	-5271.8877
-7463	-5318.628
-7812	-5359.8174
-10467	-5385.35
-11988	-5389.1895
-8501	-5371.0693
-7145	-5334.7114
-7707	-5289.6304
-10506	-5247.375
-12074	-5220.071
-8536	-5218.289
-7342	-5247.132
-7904	-5307.5684
-10398	-5394.1455
-11932	-5496.731
-8438	-5602.723
-6875	-5697.4434
-7969	-5769.084
-11298	-5808.145
-13484	-5810.6104
-9311	-5778.2905
-7251	-5715.75
-7644	-5632.352
-10214	-5538.696
-12042	-5445.0806
-8390	-5360.837
-7104	-5291.4824
-7763	-5241.0957
-10422	-5210.491
-11872	-5198.744
-8407	-5204.2583
-7117	-5223.3135
-7719	-5253.2266
-10254	-5290.3457
-11754	-5330.9604
-8346	-5371.575
-7167	-5407.102
-7744	-5433.747
-10308	-5447.4897
-11802	-5445.7114
-8400	-5428.327
-7106	-5396.526
-7629	-5355.4307
-10064	-5311.531
-11612	-5272.606
-8372	-5246.703
-7034	-5238.8345
-7500	-5252.006
-10179	-5284.2827
-11694	-5329.811
-8382	-5379.91
-7126	-5423.052
-7672	-5449.402
-10200	-5451.08
-11626	-5425.0557
-8308	-5374.3325
-7085	-5306.1562
-7782	-5233.4004
-10432	-5170.387
-11741	-5131.086
-8451	-5126.5933
-7189	-5161.367
-7785	-5234.347
-10073	-5337.138
-11460	-5456.169
-8478	-5575.3066
-7506	-5677.142
-8117	-5748.401
-10869	-5780.022
-13022	-5769.389
-8885	-5721.153
-7079	-5643.6455
-7618	-5549.7656
-10384	-5452.231
-12124	-5362.246
-8897	-5287.948
-7471	-5231.9956
-7961	-5193.984
-10736	-5169.6816
-12237	-5153.4307
-8786	-5140.607
-7324	-5127.129
-7907	-5112.772
-10501	-5099.2393
-11797	-5090.397
-8732	-5091.1606
-7591	-5104.4097
-8034	-5132.2393
-10559	-5173.178
-12178	-5223.1396
-8884	-5277.0234
-7497	-5326.7314
-7879	-5367.453
-10336	-5395.5103
-11994	-5410.223
-8796	-5414.4316
-7346	-5412.1885
-8055	-5409.5547
-10641	-5411.4
-12004	-5420.7417
-8734	-5438.1167
-7510	-5459.811
-8008	-5480.889
-10584	-5494.582
-12152	-5495.014
-8949	-5479.372
-7551	-5447.4106
-7827	-5404.326
-10319	-5358.1797
-12061	-5319.3657
-8939	-5298.9507
-7596	-5304.7134
-7954	-5341.4893
-10777	-5407.8237
-12106	-5496.959
-8838	-5597.95
-7550	-5695.732
-8074	-5776.0254
-10989	-5826.1177
-12586	-5837.9893
-8891	-5809.951
-7340	-5744.9976
-7911	-5652.7783
-10421	-5545.9023
-11864	-5438.2163
-8751	-5342.804
-7553	-5268.4385
-8004	-5220.778
-10539	-5199.9395
-12121	-5201.9937
-8827	-5220.61
-7355	-5246.955
-7659	-5273.6475
-10275	-5294.117
-12123	-5304.3438
-8867	-5303.5215
-7406	-5291.935
-7884	-5272.5674
-10457	-5248.341
-11933	-5222.3535
-8695	-5197.348
-7381	-5174.4087
-7829	-5155.0146
-10379	-5139.4097
-11865	-5127.953
-8539	-5121.533
-7322	-5119.934
-7932	-5124.108
-10442	-5133.8755
-11905	-5148.502
-8771	-5166.8564
-7394	-5186.1533
-7816	-5203.576
-10465	-5216.2153
-11892	-5222.0337
-8689	-5220.779
-7458	-5212.8223
-7856	-5201.604
-10648	-5191.127
-12162	-5186.4487
-8922	-5192.8584
-7448	-5213.267
-7954	-5249.6406
-10816	-5300.59
-11954	-5362.658
-8515	-5430.708
-7520	-5497.2114
-8273	-5555.957
-10958	-5601.1616
-12082	-5629.3965
-9972	-5639.8643
-7641	-5633.5215
-7881	-5614.5913
-10353	-5587.808
-11847	-5558.427
-8679	-5531.578
-7393	-5510.0625
-7849	-5496.1523
-10396	-5489.88
-11928	-5490.186
-8912	-5495.6245
-7479	-5503.4126
-7994	-5512.0303
-10789	-5519.6143
-12206	-5525.1826
-8877	-5528.764
-7459	-5529.5557
-7951	-5528.0063
-10706	-5523.9614
-12103	-5517.566
-8859	-5509.538
-7553	-5499.765
-7981	-5489.809
-10360	-5480.876
-11776	-5474.5806
-8986	-5472.808
-7870	-5475.9844
-8151	-5484.9663
-10531	-5498.8237
-12069	-5515.6123
-9084	-5533.0576
-7749	-5547.286
-7982	-5556.0107
-10614	-5557.0303
-12232	-5549.9546
-8796	-5536.6807
-7520	-5519.542
-8293	-5503.27
-10687	-5492.421
-12076	-5491.1245
-9254	-5502.3125
-7970	-5525.71
-8359	-5559.7935
-10825	-5599.983
-11898	-5640.3745
-8758	-5674.867
-7834	-5696.77
-8646	-5702.3735
-10216	-5690.2495
-14678	-5660.7734
-10927	-5618.712
-7889	-5569.399
-8225	-5520.0425
-11004	-5476.838
-12489	-5444.5234
-9218	-5425.949
-7732	-5420.013
-8334	-5424.5156
-11132	-5434.8423
-12659	-5446.0
-9066	-5454.0317
-7607	-5455.1626
-8140	-5448.7417
-10594	-5435.466
-12113	-5417.8037
-8930	-5399.6035
-7575	-5383.5225
-8140	-5372.4624
-10973	-5367.06
-12620	-5366.5054
-9241	-5369.1523
-7911	-5371.3413
-8321	-5370.7173
-11084	-5365.0776
-12688	-5354.058
-9453	-5339.644
-7918	-5324.2334
-8235	-5312.241
-11028	-5307.2446
-12773	-5312.006
-9410	-5327.899
-7716	-5352.882
-8362	-5383.7725
-11148	-5415.254
-12871	-5441.874
-9782	-5459.648
-8091	-5465.664
-8486	-5460.8955
-11213	-5448.553
-12744	-5434.455
-9399	-5426.0728
-7924	-5429.393
-8349	-5449.417
-11034	-5487.065
-12544	-5539.4287
-9438	-5600.311
-7704	-5659.7217
-7960	-5707.552
-11690	-5733.6567
-15036	-5731.1562
-11344	-5698.8247
-8168	-5639.292
-8461	-5560.9697
-11224	-5475.073
-12943	-5394.308
-9479	-5330.9688
-7976	-5293.0024
-8742	-5284.7754
-11564	-5304.8345
-12787	-5347.25
-9382	-5402.943
-7898	-5460.243
-8370	-5509.325
-11121	-5542.2085
-12789	-5554.964
-9368	-5548.435
-7999	-5526.052
-8722	-5494.764
-11434	-5461.7227
-12843	-5433.631
-9463	-5415.6323
-7867	-5408.978
-8408	-5413.3223
-11236	-5425.6284
-12799	-5442.1987
-9361	-5460.054
-7853	-5476.0234
-8411	-5489.517
-11087	-5500.756
-12647	-5510.928
-9411	-5521.7563
-7844	-5533.168
-8448	-5544.878
-11433	-5554.644
-13294	-5559.8276
-9598	-5558.7197
-7967	-5549.648
-8628	-5534.1587
-11531	-5515.755
-13122	-5500.6147
-9717	-5496.8267
-8051	-5511.1846
-8641	-5549.707
-11487	-5614.431
-13285	-5703.3467
-9120	-5810.557
-8171	-5924.9043
-8439	-6034.374
-11911	-6125.719
-15607	-6187.716
-11569	-6214.1714
-8256	-6202.581
-8585	-6156.161
-11577	-6081.645
-13187	-5988.67
-9844	-5888.202
-8277	-5789.145
-8339	-5699.261
-12410	-5622.291
-13572	-5560.1865
-9856	-5513.287
-8284	-5479.803
-8712	-5459.1963
-11561	-5450.9663
-13319	-5455.725
-9845	-5475.007
-8245	-5508.509
-8622	-5555.6006
-11542	-5612.7207
-13531	-5674.183
-9974	-5733.253
-8366	-5781.495
-8774	-5812.7773
-11601	-5823.1006
-13349	-5812.8096
-9861	-5787.2954
-8228	-5754.4995
-8747	-5725.5386
-11593	-5710.5073
-13406	-5716.914
-9906	-5748.0723
-8275	-5800.1504
-8944	-5864.575
-12027	-5928.015
-13647	-5976.17
-9954	-5997.1997
-8299	-5983.117
-8749	-5934.2246
-11646	-5858.016
-13524	-5769.2603
-10086	-5687.6377
-8365	-5632.3926
-8817	-5620.4277
-11868	-5660.997
-14021	-5754.3413
-10458	-5891.585
-8491	-6054.5415
-9156	-6220.7085
-12803	-6365.49
-15716	-6467.7266
-11306	-6514.214
-8553	-6499.8057
-9004	-6429.1387
-12214	-6315.0127
-14444	-6175.7593
-10631	-6032.371
-8729	-5902.7817
-9396	-5801.1567
-12080	-5734.659
-14048	-5703.8364
-10493	-5704.231
-8662	-5726.445
-9020	-5760.6377
-12049	-5797.032
-13979	-5828.4316
-10559	-5851.14
-8825	-5863.137
-9207	-5865.361
-12416	-5858.79
-16386	-5844.1543
-11091	-5823.3394
-8855	-5795.959
-9312	-5762.7544
-12494	-5724.6177
-14417	-5684.323
-10534	-5647.1875
-8645	-5618.6763
-9174	-5605.4546
-12326	-5612.29
-14317	-5641.67
-10679	-5692.8604
-8965	-5759.584
-9505	-5832.797
-12447	-5900.6597
-14513	-5951.778
-10784	-5978.15
-8957	-5975.354
-9446	-5946.2583
-12481	-5899.184
-14574	-5847.4414
-10783	-5807.579
-8945	-5794.14
-9433	-5818.4893
-12386	-5884.8433
-14707	-5989.7944
-10927	-6123.1675
-8819	-6267.9106
-9524	-6404.891
-13108	-6514.8154
-15842	-6582.5757
-11690	-6601.5034
-9002	-6570.266
-9327	-6496.679
-12363	-6394.223
-14336	-6279.4673
-10692	-6169.6123
-9050	-6077.8213
-9424	-6013.4297
-12488	-5979.163
-14473	-5972.3877
-10831	-5986.8096
-8983	-6012.616
-9396	-6040.908
-12492	-6063.627
-14463	-6075.7334
-10849	-6076.144
-8926	-6065.461
-9236	-6047.2485
-12571	-6025.117
-14517	-6002.883
-10872	-5984.0747
-8945	-5969.856
-9409	-5961.372
-12533	-5958.281
-14489	-5960.295
-10946	-5967.7393
-9102	-5979.8633
-9599	-5996.811
-12741	-6017.533
-14682	-6040.515
-11351	-6063.744
-9306	-6083.319
-9432	-6096.0977
-12504	-6098.7637
-14490	-6089.672
-11018	-6070.112
-9217	-6042.9424
-9538	-6014.6587
-12598	-5992.9775
-14402	-5986.536
-10780	-6003.582
-8966	-6048.7334
-9480	-6123.949
-12553	-6226.1675
-14191	-6348.5327
-10497	-6481.39
-8636	-6612.0557
-9436	-6728.5283
-13119	-6819.671
-15975	-6877.599
-11465	-6899.1045
-9029	-6883.1704
-9469	-6833.756
-12694	-6757.4883
-14592	-6662.8735
-11241	-6559.8184
-9229	-6457.2627
-9404	-6364.722
-12593	-6290.001
-14479	-6239.8477
-10955	-6219.9517
-9106	-6232.8853
-9563	-6279.5303
-12697	-6356.8667
-14564	-6458.7114
-11142	-6576.05
-9165	-6695.9873
-9623	-6805.164
-12720	-6889.6865
-14606	-6938.2305
-11008	-6944.367
-9222	-6906.33
-9567	-6829.841
-12520	-6725.952
-14441	-6610.3545
-10929	-6501.328
-8972	-6415.022
-9384	-6364.617
-12511	-6356.237
-14768	-6388.609
-11128	-6453.875
-9037	-6537.297
-9366	-6622.0835
-12587	-6691.184
-14414	-6731.646
-10796	-6737.429
-8906	-6708.9937
-9321	-6655.514
-12477	-6591.1177
-14321	-6532.9277
-11164	-6497.746
-9301	-6497.182
-9262	-6537.132
-12253	-6614.6255
-14327	-6719.1953
-11081	-6835.1875
-8991	-6943.0713
-9251	-7025.542
-12726	-7068.2373
-15759	-7064.0146
-11591	-7014.7197
-9001	-6927.8564
-9297	-6818.16
-12369	-6702.9897
-14394	-6599.201
-10743	-6520.6914
-8837	-6474.58
-9295	-6462.359
-12399	-6478.531
-14067	-6513.5586
-10761	-6555.4927
-8956	-6592.168
-9307	-6615.2563
-12269	-6619.9824
-14068	-6606.7544
-10769	-6580.781
-9067	-6549.034
-9363	-6520.615
-12506	-6502.7764
-14407	-6500.4375
-10890	-6515.569
-9082	-6545.3027
-9463	-6585.2817
-12414	-6628.988
-14469	-6670.2495
-11112	-6704.9067
-9212	-6729.953
-9449	-6745.921
-12676	-6754.4414
-14541	-6758.3545
-11094	-6760.734
-9079	-6762.165
-9419	-6762.4033
-12634	-6758.5967
-14411	-6747.0723
-11007	-6724.6035
-9048	-6688.385
-9386	-6639.3496
-12626	-6580.88
-14297	-6519.9717
-10981	-6466.3228
-9076	-6429.267
-9354	-6418.0327
-12486	-6437.9746
-14237	-6490.174
-11123	-6570.792
-9284	-6669.957
-9529	-6775.3687
-12854	-6872.4824
-15338	-6947.7812
-11348	-6991.7905
-8886	-6998.475
-9415	-6969.0947
-12603	-6910.034
-14419	-6832.122
-11108	-6748.9365
-9076	-6672.9004
-9465	-6615.4155
-12553	-6583.232
-14326	-6578.348
-11203	-6598.4526
-9069	-6636.235
-9366	-6683.0854
-12644	-6729.1426
-14174	-6766.2285
-11130	-6788.948
-9247	-6794.199
-9562	-6783.213
-12712	-6759.1377
-14417	-6727.1367
-11131	-6693.351
-9071	-6661.4424
-9479	-6635.8486
-12786	-6618.271
-14506	-6609.0244
-11127	-6607.391
-9057	-6610.7437
-9612	-6617.214
-12932	-6624.287
-14552	-6630.0117
-11234	-6633.1245
-9213	-6631.6484
-9402	-6625.111
-12674	-6612.6284
-14603	-6594.191
-11324	-6571.0903
-9362	-6544.465
-9661	-6517.771
-12767	-6494.699
-14622	-6479.7515
-11283	-6477.7793
-9327	-6491.454
-9428	-6522.9263
-12601	-6570.962
-14086	-6631.91
-10694	-6699.8833
-9144	-6765.736
-9585	-6820.963
-13058	-6857.0127
-15884	-6867.4526
-11686	-6850.0103
-9249	-6804.6255
-9447	-6736.4365
-12556	-6653.074
-14307	-6564.1104
-11194	-6479.7524
-9116	-6407.9634
-9502	-6355.3745
-12807	-6324.6094
-14487	-6315.457
-11154	-6325.225
-9064	-6348.219
-8981	-6379.2227
-13831	-6412.106
-14529	-6443.2295
-11131	-6470.547
-9016	-6492.81
-9571	-6511.2695
-12820	-6527.3257
-14324	-6542.9565
-11232	-6559.8022
-9359	-6577.7603
-9640	-6597.0493
-12793	-6616.5117
-14369	-6634.999
-10739	-6651.783
-9017	-6665.23
-9581	-6675.283
-12768	-6681.5576
-14376	-6684.1094
-11462	-6683.1123
-9283	-6677.644
-9316	-6667.555
-12586	-6651.9546
-14514	-6630.747
-11341	-6605.0137
-9083	-6575.9966
-9427	-6547.2773
-12836	-6522.755
-14337	-6507.3413
-11333	-6505.7373
-9129	-6520.436
-9383	-6552.724
-12690	-6600.3687
-14072	-6658.8022
-11011	-6721.3315
-9208	-6779.138
-9767	-6824.6255
-13378	-6851.038
-14371	-6855.0044
-12127	-6836.478
-9574	-6798.209
-9456	-6747.2554
-12732	-6691.4907
-14404	-6639.188
-11182	-6597.5156
-9172	-6570.135
-9481	-6558.594
-12724	-6560.771
-14322	-6572.726
-11149	-6589.5947
-9125	-6605.7886
-9489	-6618.1533
-12784	-6624.9277
-14422	-6626.935
-11242	-6626.9766
-9047	-6627.7476
-9313	-6632.557
-12526	-6642.8022
-14110	-6658.3125
-11353	-6677.1904
-9288	-6695.362
-9331	-6709.5156
-12362	-6716.37
-16654	-6714.1787
-11672	-6705.3203
-9306	-6692.629
-9486	-6681.686
-12772	-6677.678
-14429	-6684.945
-11159	-6705.625
-9109	-6737.376
-9471	-6775.6396
-12684	-6812.6646
-14417	-6840.0195
-10956	-6850.553
-9509	-6838.7817
-9580	-6804.8857
-12615	-6753.069
-13839	-6692.2935
-10906	-6634.3994
-8957	-6590.9663
-9060	-6572.5713
-12169	-6584.8257
-13544	-6628.206
-10958	-6697.134
-9554	-6779.9263
-9668	-6862.971
-11738	-6931.7676
-16666	-6973.4263
-12801	-6981.4863
-9426	-6954.0337
-9458	-6896.681
-12591	-6819.6943
-14179	-6736.6245
-11264	-6661.6616
-9375	-6605.739
-9622	-6576.6616
-12688	-6576.119
-14356	-6600.7466
-11264	-6643.21
-9303	-6692.9507
-9547	-6740.234
-12546	-6776.4697
-14222	-6796.596
-11332	-6799.574
-9146	-6786.9233
-9389	-6763.4604
-12671	-6734.246
-14114	-6704.475
-11354	-6678.0215
-9277	-6656.1514
-9172	-6639.5933
-12765	-6627.1387
-14334	-6617.9907
-11226	-6612.1904
-9251	-6609.6353
-9425	-6612.1426
-12638	-6620.9404
-14015	-6637.094
-11153	-6660.1523
-9101	-6686.8535
-9321	-6712.9883
-12479	-6732.5293
-13740	-6739.9863
-11044	-6731.497
-9292	-6705.4316
-9447	-6665.1123
-12496	-6616.9927
-14055	-6570.763
-11188	-6537.2925
-9123	-6525.5415
-9451	-6541.9424
-12527	-6587.3096
-13627	-6657.2573
-10826	-6742.2886
-8851	-6828.8457
-8794	-6903.5347
-12241	-6954.1323
-16279	-6972.8706
-12995	-6958.96
-9284	-6916.6997
-9155	-6856.1943
-12299	-6789.6377
-13734	-6729.2666
-11042	-6684.4688
-9185	-6658.9546
-9324	-6651.851
-12222	-6656.803
-13418	-6664.8887
-10940	-6666.9116
-9087	-6655.59
-9299	-6629.2017
-12425	-6591.1147
-13770	-6550.1646
-11079	-6518.235
-9096	-6506.8584
-9458	-6525.3857
-12756	-6577.031
-14089	-6658.5444
-11258	-6759.9565
-9079	-6865.6787
-9479	-6959.063
-12881	-7024.6436
-14074	-7052.541
-11091	-7040.115
-9027	-6991.8174
-9232	-6919.603
-12538	-6838.574
-13981	-6764.2974
-11192	-6708.79
-9199	-6677.0146
-9306	-6667.315
-12476	-6670.498
-14127	-6673.486
-11136	-6662.6924
-9130	-6627.0684
-9373	-6563.278
-12582	-6475.874
-13926	-6378.143
-11046	-6289.3774
-8996	-6230.0474
-9192	-6218.863
-12445	-6266.6636
-13842	-6374.6255
-10312	-6532.8438
-9096	-6720.452
-9140	-6911.6206
-12577	-7078.1235
-16315	-7195.752
-13060	-7249.762
-9492	-7235.561
-9295	-7161.363
-12391	-7044.502
-13628	-6908.6226
-11065	-6778.299
-9010	-6673.6294
-9462	-6607.8325
-13241	-6584.03
-14155	-6596.807
-11115	-6633.6
-8990	-6677.8677
-9267	-6714.6904
-12444	-6732.8213
-13799	-6728.333
-11204	-6703.4663
-9082	-6666.27
-9284	-6628.3955
-12463	-6600.563
-13856	-6590.454
-11114	-6600.38
-9203	-6626.142
-9396	-6659.599
-12458	-6689.5703
-13728	-6705.946
-11269	-6701.9204
-9240	-6675.445
-9342	-6631.286
-12499	-6578.165
-13749	-6527.694
-11094	-6490.9224
-9061	-6474.852
-9449	-6481.664
-12699	-6506.942
-13781	-6541.707
-11212	-6573.9824
-9086	-6591.595
-9257	-6586.825
-12414	-6557.4966
-13614	-6508.923
-11042	-6452.536
-9039	-6403.274
-9247	-6377.294
-12465	-6386.9585
-13641	-6438.6064
-10995	-6529.9546
-9357	-6649.584
-9605	-6780.15
-12960	-6900.0527
-15372	-6988.5166
-11966	-7029.675
-9249	-7014.9766
-9194	-6945.3467
-12326	-6830.4644
-13600	-6687.513
-11148	-6537.1626
-9137	-6399.5005
-9429	-6291.891
-12487	-6225.044
-13630	-6202.8403
-11098	-6222.0576
-9031	-6273.5186
-9204	-6345.8003
-12421	-6426.292
-13752	-6504.4575
-11211	-6572.6226
-9049	-6625.981
-9191	-6663.504
-12489	-6685.6313
-14025	-6694.195
-11395	-6691.1553
-9295	-6677.6406
-9320	-6655.349
-12459	-6625.7485
-13622	-6591.7974
-11061	-6557.874
-9029	-6527.7314
-9226	-6507.5874
-12458	-6501.8735
-13664	-6513.2783
-11259	-6540.9326
-9257	-6579.5503
-9383	-6621.249
-12386	-6655.3955
-13544	-6671.7773
-11157	-6662.4907
-9253	-6623.763
-9414	-6559.0303
-12386	-6477.2563
-13599	-6393.2456
-11207	-6324.3755
-9180	-6287.057
-9404	-6294.3115
-12388	-6351.703
-13747	-6456.702
-11207	-6598.1133
-8997	-6757.4697
-9426	-6913.042
-13101	-7042.5376
-15264	-7128.181
-12224	-7160.385
-9642	-7136.225
-9497	-7063.2905
-12517	-6955.9165
-13857	-6832.68
-11219	-6712.5747
-9139	-6611.0435
-9327	-6538.7686
-12444	-6499.0864
-13642	-6489.321
-11262	-6501.679
-9088	-6525.2705
-9285	-6549.9424
-12414	-6567.2583
-13457	-6573.0205
-11167	-6566.9414
-9264	-6551.6353
-9253	-6532.518
-12361	-6514.7964
-13439	-6502.9785
-11116	-6499.1304
-9014	-6502.59
-9172	-6511.36
-12438	-6521.994
-13699	-6531.939
-11391	-6539.412
-9169	-6543.889
-9277	-6546.9688
-12447	-6550.2993
-13306	-6555.808
-11283	-6563.6694
-9466	-6571.917
-9314	-6577.5225
-12422	-6575.7935
-13585	-6562.8354
-11349	-6536.2803
-9188	-6496.5894
-9281	-6448.537
-12446	-6399.8145
-13630	-6361.102
-11279	-6343.338
-9109	-6355.1006
-9276	-6401.4473
-12291	-6481.283
-13239	-6587.782
-11175	-6708.37
-9052	-6826.7866
-9000	-6926.5234
-12709	-6992.51
-14872	-7015.1797
-11953	-6991.962
-9319	-6926.0415
-9229	-6828.0728
-12339	-6712.8857
-13264	-6597.074
-11224	-6495.414
-9195	-6418.598
-9319	-6372.615
-12409	-6357.2456
-13441	-6367.977
-11216	-6396.8853
-9171	-6434.5996
-9299	-6473.094
-12397	-6506.1465
-13391	-6531.138
-11151	-6547.9595
-9142	-6558.137
-9446	-6564.4297
-12512	-6568.656
-13459	-6571.8096
-11257	-6573.0103
-9094	-6570.027
-9377	-6560.9375
-12581	-6544.269
-13322	-6520.9287
-11166	-6493.5386
-9288	-6466.4526
-9402	-6445.69
-12183	-6436.3335
-13781	-6441.8335
-11501	-6462.425
-9080	-6494.422
-9190	-6531.3936
-12277	-6564.44
-13334	-6585.2065
-11207	-6587.19
-9088	-6567.5596
-9286	-6529.3394
-12360	-6480.2163
-13326	-6432.4375
-11180	-6399.687
-9792	-6394.2114
-9142	-6425.433
-12227	-6495.827
-13377	-6601.2676
-11191	-6730.4644
-8903	-6866.593
-9244	-6991.247
-13207	-7085.866
-15547	-7136.856
-11666	-7137.949
-9109	-7089.02
-9251	-6998.7285
-12131	-6881.4536
-13322	-6754.7783
-11039	-6635.7627
-9029	-6537.969
-9162	-6470.098
-12192	-6434.116
-13363	-6426.498
-11157	-6438.8335
-8976	-6460.5503
-9343	-6481.8276
-12166	-6494.9033
-13271	-6496.139
-11356	-6485.712
-9162	-6467.0723
-9214	-6446.1665
-12319	-6428.761
-13332	-6419.8145
-11297	-6421.4688
-9039	-6432.859
-9160	-6451.2603
-12281	-6472.079
-13506	-6491.2705
-11337	-6505.808
-9026	-6514.512
-9133	-6518.716
-12626	-6520.864
-13601	-6524.671
-11260	-6532.781
-9131	-6545.7603
-9412	-6562.2715
-12497	-6578.3237
-13349	-6589.05
-11209	-6589.1914
-9127	-6574.965
-9384	-6545.89
-12513	-6504.782
-13450	-6458.5405
-11414	-6416.1724
-9289	-6387.3228
-9365	-6380.6943
-12361	-6401.15
-13307	-6449.2837
-11157	-6520.0083
-9124	-6603.3916
-9259	-6687.0015
-13024	-6756.934
-14882	-6801.856
-11911	-6814.7017
-8789	-6793.177
-10325	-6741.1733
-12555	-6667.9023
-13573	-6585.705
-11567	-6507.3433
-9404	-6443.7397
-9501	-6402.5825
-12684	-6386.3286
-13729	-6393.172
-11449	-6417.156
-9174	-6449.884
-9364	-6483.0596
-13377	-6509.308
-24977	-6522.3774
-13669	-6524.9194
-9023	-6518.731
-9417	-6508.163
-12646	-6497.967
-13459	-6492.5405
-11365	-6493.8613
-9071	-6501.3384
-9240	-6512.7993
-12647	-6524.3545
-13667	-6532.735
-11336	-6535.368
-9064	-6531.2583
-9499	-6521.7
-12874	-6509.0967
-13643	-6497.119
-11394	-6488.4805
-9171	-6484.2334
-9325	-6483.777
-12439	-6484.167
-13355	-6481.937
-11393	-6473.395
-9160	-6456.3804
-9398	-6431.8403
-12680	-6403.637
-13772	-6379.2314
-11574	-6367.593
-9367	-6377.209
-9484	-6414.4233
-12657	-6480.5674
-13387	-6571.7715
-11054	-6677.9155
-9380	-6783.8213
-9661	-6872.6587
-13200	-6928.104
-15132	-6938.4478
-11705	-6899.1235
-9146	-6812.968
-9375	-6691.6074
-12513	-6552.391
-13347	-6416.1245
-11396	-6302.1367
-9246	-6224.875
-9438	-6191.81
-12602	-6201.378
-13591	-6244.624
-11666	-6306.6143
-9372	-6370.223
-8935	-6420.469
-12878	-6446.6
-13390	-6445.8457
-11332	-6422.0703
-9185	-6384.913
-9313	-6347.281
-12381	-6321.0825
-13284	-6315.148
-11378	-6331.874
-9186	-6367.1426
-9345	-6411.81
-12501	-6453.6646
-13060	-6481.9224
-12267	-6488.866
-9357	-6473.516
-9445	-6441.535
-12425	-6403.7305
-13297	-6373.8604
-11294	-6363.866
-9264	-6380.698
-9714	-6423.9287
-12806	-6484.6646
-13541	-6548.299
-11469	-6596.7676
-9123	-6613.818
-9395	-6589.948
-12670	-6525.4004
-13413	-6432.3374
-11339	-6332.074
-9034	-6251.257
-9288	-6216.0376
-12573	-6244.9155
-13265	-6344.2114
-11179	-6504.042
-9335	-6699.234
-9357	-6893.968
-13099	-7048.1646
-13806	-7127.7974
-12122	-7111.6255
-9505	-6998.0356
-9465	-6807.998
-12497	-6581.79
-13251	-6373.0327
-11244	-6237.49
-9096	-6222.268
-9449	-6355.4966
-12554	-6638.893
-13449	-7046.37
-11486	-7526.348
-8959	-8010.6406
-9254	-8426.243
-12547	-8708.08
-13525	-8811.566
-11474	-8719.633
-9157	-8445.984
-9322	-8032.419
-12432	-7540.3726
-13396	-7040.405
-11544	-6598.8486
-9432	-6267.082
-9652	-6073.92
-12612	-6022.159
-14267	-6091.0234
-11317	-6242.1978
-9293	-6428.412
-9348	-6603.9077
-12442	-6732.1147
-13394	-6792.446
-11401	-6781.4575
-9147	-6711.082
-9331	-6604.6064
-12391	-6489.736
-13062	-6392.924
-11012	-6333.0635
-9174	-6318.905
-9289	-6349.071
-12026	-6413.3945
-12710	-6497.179
-11109	-6584.2314
-9068	-6661.1406
-9372	-6719.787
-12634	-6757.1934
-13269	-6776.478
-11547	-6783.0137
-9401	-6782.9067
-9269	-6781.0933
-12191	-6779.4995
-16656	-6776.752
-13223	-6770.4683
-9431	-6756.6797
-9344	-6733.1226
-12614	-6699.11
-13505	-6657.1465
-11336	-6611.6924
-9181	-6568.243
-9354	-6532.4106
-12426	-6507.764
-13376	-6495.8257
-11246	-6494.91
-9107	-6500.8164
-9428	-6508.388
-12471	-6512.505
-13191	-6510.058
-11373	-6500.0293
-9127	-6484.014
-9277	-6465.7754
-12559	-6449.8013
-13464	-6440.9097
-11547	-6441.9233
-9272	-6453.552
-9217	-6474.3755
-12444	-6500.8843
-13430	-6529.38
-11362	-6556.0454
-9005	-6578.1978
-9317	-6594.9307
-12404	-6606.6597
-13055	-6615.319
-11352	-6622.094
-9209	-6627.5254
-9320	-6631.0166
-12344	-6630.264
-12936	-6622.75
-11241	-6605.669
-9122	-6577.7954
-9215	-6540.5317
-12371	-6497.7495
-13041	-6456.493
-11156	-6424.711
-9116	-6410.1826
-9390	-6418.7837
-12361	-6452.4966
-12802	-6509.366
-10868	-6582.3203
-8234	-6660.9663
-8826	-6733.197
-12294	-6787.358
-16040	-6814.7305
-12854	-6811.886
-9450	-6780.0327
-9266	-6725.6
-12299	-6658.467
-13181	-6589.515
-11202	-6528.894
-8956	-6483.683
-9267	-6457.058
-12185	-6447.9414
-12716	-6452.609
-11358	-6464.894
-9146	-6479.0195
-9319	-6491.053
-12431	-6499.4966
-13130	-6506.3145
-11420	-6515.928
-9262	-6529.188
-9552	-6551.69
-12726	-6585.0166
-13454	-6627.4404
-11536	-6673.5923
-9180	-6716.1616
-9598	-6747.2783
-12701	-6760.3237
-13223	-6752.2305
-11426	-6723.0923
-9101	-6677.033
-9364	-6621.1333
-12511	-6563.3496
-13116	-6511.2295
-11211	-6469.019
-9012	-6437.3984
-9329	-6413.4136
-12397	-6391.2065
-13188	-6364.766
-11389	-6329.2334
-9119	-6283.6777
-9318	-6232.299
-12384	-6184.2583
-12877	-6153.1025
-11186	-6152.95
-9044	-6196.0063
-9264	-6289.386
-12174	-6432.204
-12900	-6615.2397
-10434	-6820.68
-9091	-7024.665
-8971	-7201.9614
-12531	-7328.9106
-16265	-7388.541
-13295	-7374.197
-9468	-7289.5103
-9137	-7148.759
-12169	-6973.3286
-13121	-6788.6436
-11392	-6618.766
-9012	-6483.074
-9246	-6393.1035
-12343	-6351.1836
-13174	-6351.8813
-11238	-6383.135
-8997	-6430.0986
-9182	-6478.5063
-12202	-6517.2944
-13016	-6541.3486
-11339	-6549.9644
-8977	-6547.335
-9212	-6539.86
-12297	-6533.602
-13112	-6532.9688
-11289	-6538.421
-9163	-6546.989
-9333	-6553.3325
-12266	-6551.338
-12899	-6536.9526
-11231	-6508.71
-9003	-6469.663
-9187	-6426.049
-12201	-6386.6157
-12999	-6360.4116
-11368	-6353.347
-9157	-6366.918
-9444	-6397.132
-12471	-6434.772
-12908	-6467.9976
-11201	-6484.084
-8973	-6473.546
-9207	-6432.698
-12258	-6365.203
-12912	-6282.7314
-11201	-6202.0586
-8986	-6142.715
-9243	-6122.601
-12271	-6153.7983
-12949	-6240.0923
-11221	-6374.3984
-8767	-6540.39
-8939	-6714.7676
-12711	-6870.874
-14330	-6984.8574
-11774	-7038.939
-9086	-7025.265
-9194	-6946.912
-12167	-6817.306
-13012	-6657.98
-11427	-6493.496
-9010	-6347.827
-9320	-6239.9614
-12172	-6181.103
-13021	-6174.008
-11507	-6212.7456
-9047	-6285.5786
-9209	-6377.536
-12204	-6473.5713
-12977	-6561.592
-11375	-6633.0366
-8969	-6684.113
-9209	-6714.8066
-12254	-6727.4453
-12978	-6725.7485
-11352	-6712.492
-9099	-6689.69
-9280	-6658.4663
-12303	-6619.577
-12854	-6575.0596
-11249	-6527.942
-9016	-6482.7256
-9221	-6445.6045
-12195	-6422.2056
-12914	-6417.019
-11454	-6430.6167
-9132	-6459.5737
-9332	-6496.152
-12286	-6529.308
-12853	-6547.53
-11301	-6540.436
-8941	-6502.5703
-9122	-6435.155
-12203	-6346.5684
-12949	-6252.516
-11439	-6172.424
-9104	-6126.601
-9252	-6131.6377
-12172	-6196.627
-13031	-6321.19
-11364	-6493.665
-9214	-6693.3174
-9257	-6893.2334
-12854	-7064.547
-14495	-7182.476
-11768	-7230.508
-9053	-7201.5054
-9137	-7101.487
-12157	-6947.124
-12861	-6762.835
-11264	-6575.3716
-9256	-6409.9365
-9379	-6286.025
-12061	-6214.154
-12734	-6195.543
-11244	-6221.9785
-9027	-6279.047
-9168	-6349.4717
-12097	-6416.3525
-12737	-6466.9663
-11152	-6493.618
-9121	-6494.998
-9287	-6475.2144
-12220	-6441.8486
-12896	-6404.434
-11326	-6371.076
-8959	-6347.818
-9174	-6337.4556
-12236	-6339.495
-12886	-6351.7275
-11332	-6369.9854
-9037	-6390.2896
-9136	-6409.5444
-12132	-6425.6973
-12584	-6438.354
-12277	-6446.7993
-9132	-6451.4653
-9239	-6451.8667
-12254	-6446.9336
-12818	-6435.966
-11309	-6417.8413
-8934	-6392.8213
-8978	-6362.5947
-11909	-6330.49
-12457	-6302.046
-10902	-6282.9175
-8722	-6278.7954
-8936	-6293.757
-11897	-6328.98
-12663	-6382.797
-11541	-6449.506
-9265	-6521.255
-9172	-6588.669
-12867	-6642.378
-14777	-6675.2095
-12370	-6683.487
-9120	-6666.5034
-9321	-6628.1724
-12269	-6575.427
-12595	-6517.285
-11355	-6461.9165
-9019	-6416.435
-9117	-6385.372
-12185	-6370.0176
-12989	-6369.223
-11451	-6379.0894
-8999	-6394.989
-9192	-6411.8677
-12191	-6425.584
-12954	-6434.0215
-11476	-6436.1284
-9014	-6432.699
-9271	-6425.2715
-12089	-6415.69
-12637	-6406.085
-11239	-6397.4126
-8970	-6390.432
-9257	-6385.3706
-12140	-6382.242
-12597	-6381.561
-11175	-6383.309
-8965	-6387.989
-9267	-6395.758
-12036	-6406.2476
-12746	-6418.6904
-11297	-6430.804
-8901	-6440.024
-9091	-6443.4595
-12171	-6438.565
-12874	-6424.6226
-11347	-6402.2627
-8947	-6374.695
-9187	-6347.0396
-12007	-6325.718
-12454	-6317.894
-10990	-6328.8604
-8812	-6361.9233
-9106	-6416.8296
-12040	-6489.5005
-12611	-6572.985
-11040	-6657.3623
-8884	-6732.001
-9178	-6787.377
-12792	-6815.6445
-14575	-6813.4854
-11868	-6781.846
-8819	-6724.6284
-8292	-6649.7095
-12742	-6566.1514
-12878	-6484.071
-11096	-6411.1724
-8856	-6352.976
-9144	-6312.0674
-12072	-6288.308
-12517	-6279.95
-11096	-6283.296
-8944	-6294.6064
-9123	-6310.506
-12005	-6328.195
-12634	-6346.1504
-11210	-6362.7935
-9062	-6377.07
-9156	-6387.849
-12072	-6393.888
-12649	-6394.6245
-11292	-6389.4414
-9077	-6379.158
-9244	-6366.013
-12163	-6353.4756
-12566	-6346.606
-11381	-6349.6963
-9251	-6366.288
-9204	-6397.3423
-12270	-6440.199
-12818	-6489.061
-11384	-6534.2466
-9064	-6564.666
-9219	-6569.4136
-12181	-6540.2866
-12881	-6474.661
-11555	-6375.827
-9051	-6254.65
-9247	-6127.647
-12138	-6014.9614
-12469	-5937.5977
-11271	-5912.3315
-9129	-5949.5947
-9333	-6050.45
-12192	-6205.832
-12535	-6398.15
-11376	-6602.6113
-9508	-6792.363
-9527	-6942.5005
-12963	-7034.0054
-14259	-7057.6597
-11656	-7014.499
-8935	-6915.454
-9602	-6779.372
-12329	-6629.361
-13011	-6488.7485
-11499	-6376.273
-9104	-6304.0557
-9491	-6275.592
-12613	-6286.304
-12962	-6325.7705
-11481	-6379.383
-9134	-6432.4985
-9397	-6472.7734
-12386	-6492.4893
-15006	-6489.332
-11669	-6466.5146
-9222	-6430.347
-9454	-6388.6914
-12431	-6348.98
-12853	-6317.0874
-11574	-6295.2676
-9404	-6283.3745
-9561	-6279.0796
-12314	-6279.2183
-12821	-6281.5186
-11571	-6284.313
-8972	-6288.0923
-9522	-6294.1226
-12721	-6303.9795
-12968	-6319.0747
-11587	-6338.257
-9224	-6358.5835
-9481	-6374.896
-12554	-6381.059
-13029	-6372.101
-11606	-6344.5957
-9117	-6299.2935
-9372	-6240.97
-12286	-6178.5225
-12995	-6124.0894
-11559	-6089.826
-9264	-6086.404
-9750	-6119.9116
-12699	-6190.506
-12761	-6292.3423
-11552	-6412.7544
-9217	-6535.485
-9011	-6642.9463
-12719	-6718.955
-14008	-6752.8047
-11981	-6739.979
-9198	-6683.224
-9309	-6592.2915
-12201	-6481.493
-12711	-6367.632
-11587	-6265.754
-9147	-6187.9136
-9392	-6140.611
-12469	-6124.3584
-12857	-6135.0454
-11529	-6164.1943
-9369	-6202.0835
-9319	-6239.445
-12161	-6269.25
-12792	-6288.345
-11637	-6296.397
-9242	-6296.3564
-9437	-6292.498
-12369	-6289.1294
-12647	-6290.1367
-11421	-6296.781
-9149	-6308.849
-9363	-6324.3564
-12284	-6340.667
-12327	-6355.984
-11371	-6368.523
-9104	-6378.4326
-9617	-6386.5996
-12525	-6394.488
-12751	-6403.7954
-11496	-6414.21
-9246	-6424.561
-9605	-6431.3486
-12482	-6430.88
-12820	-6420.1255
-11653	-6396.816
-9366	-6361.9546
-9431	-6319.624
-12442	-6276.989
-12821	-6244.0435
-11652	-6230.3936
-9254	-6244.5757
-9471	-6291.1147
-12347	-6369.2837
-12399	-6473.195
-11098	-6590.844
-9012	-6707.1064
-9084	-6805.5454
-12589	-6871.4517
-12904	-6895.735
-12587	-6874.7324
-9621	-6812.901
-9397	-6721.676
-12195	-6617.572
-12610	-6519.5605
-11504	-6444.655
-9252	-6406.2437
-9546	-6410.7026
-12342	-6456.853
-12750	-6536.7383
-11582	-6635.9556
-9036	-6737.67
-9407	-6824.7637
-12342	-6883.3276
-12801	-6905.28
-11695	-6888.2856
-9227	-6837.0347
-9471	-6761.0796
-12359	-6673.246
-12625	-6587.499
-11427	-6515.328
-9125	-6465.1675
-9387	-6440.5146
-12106	-6440.3276
-12863	-6460.039
-11897	-6491.9717
-9199	-6528.3604
-9294	-6561.699
-12316	-6586.3716
-12852	-6599.8193
-11814	-6601.339
-9376	-6592.812
-9642	-6577.0693
-12447	-6557.524
-12494	-6537.9404
-11167	-6520.5317
-8979	-6507.2085
-9325	-6498.903
-11916	-6496.261
-12159	-6500.0737
-11254	-6510.193
-9123	-6526.88
-9491	-6549.654
-12521	-6577.3115
-12664	-6608.3486
-11418	-6639.419
-9209	-6666.893
-8980	-6686.7036
-11700	-6694.971
-16469	-6688.495
-13544	-6667.044
-9516	-6632.117
-9529	-6587.4287
-12461	-6538.3496
-12667	-6491.896
-11425	-6453.1904
-9054	-6427.039
-9307	-6415.6626
-12236	-6418.5845
-12661	-6433.2695
-11502	-6454.469
-9146	-6476.5884
-9449	-6493.832
-12284	-6501.7085
-12695	-6498.335
-11706	-6483.433
-9228	-6459.533
-9506	-6430.3374
-12483	-6400.206
-12754	-6373.863
-11539	-6354.119
-9173	-6342.8555
-9321	-6340.06
-12387	-6344.5244
-12649	-6355.1196
-11394	-6369.98
-9067	-6388.4165
-9324	-6410.0796
-12166	-6435.202
-12694	-6464.7227
-11673	-6498.121
-9176	-6534.351
-9394	-6570.422
-12269	-6601.956
-12462	-6624.303
-11481	-6632.0654
-9122	-6621.7983
-9298	-6592.1255
-12209	-6544.9966
-12489	-6486.2373
-11457	-6423.583
-9019	-6367.0435
-9365	-6325.9473
-12175	-6307.7314
-12170	-6316.9106
-11457	-6352.4883
-9034	-6409.695
-9611	-6479.344
-12629	-6550.02
-16182	-6610.1187
-13429	-6650.5586
-9181	-6665.7944
-9025	-6654.7466
-11899	-6621.0366
-12218	-6572.322
-11366	-6517.773
-9088	-6467.339
-9445	-6428.933
-12277	-6407.4614
-12179	-6404.5054
-11426	-6416.837
-9196	-6439.208
-9376	-6464.553
-12384	-6485.9624
-12879	-6498.6523
-11637	-6499.9146
-9116	-6489.5835
-9406	-6470.772
-12374	-6447.9053
-12637	-6426.509
-11545	-6410.706
-9046	-6403.978
-9546	-6407.477
-12524	-6420.7124
-12694	-6442.378
-11712	-6469.405
-9288	-6498.951
-9314	-6527.5938
-12002	-6552.154
-12372	-6569.7114
-11400	-6576.3945
-9094	-6569.1245
-9540	-6544.619
-12271	-6500.8154
-12640	-6437.9917
-11459	-6358.483
-9023	-6268.788
-9187	-6178.607
-12004	-6100.6885
-12369	-6049.635
-11378	-6038.456
-9032	-6077.41
-9242	-6170.677
-12079	-6315.0825
-12372	-6499.9043
-10506	-6706.639
-9284	-6912.136
-9538	-7091.5566
-12957	-7222.1753
-16476	-7287.4077
-13485	-7279.9087
-9349	-7202.41
-9243	-7067.0645
-12106	-6893.7363
-12358	-6706.998
-11367	-6530.7305
-8951	-6385.816
-9216	-6285.924
-12112	-6236.6094
-12510	-6235.6323
-11496	-6273.0356
-9035	-6335.3276
-9208	-6407.2354
-12004	-6474.973
-12380	-6528.885
-11396	-6563.0063
-9066	-6576.369
-9314	-6571.017
-12036	-6551.1567
-12442	-6521.9585
-11504	-6487.2163
-9276	-6450.433
-9331	-6413.805
-11969	-6379.267
-12427	-6349.489
-11536	-6326.9326
-9186	-6315.373
-9233	-6317.6665
-12018	-6335.358
-12409	-6367.766
-11419	-6409.9673
-9070	-6454.332
-9312	-6490.2095
-12218	-6506.531
-12531	-6494.8086
-11474	-6450.505
-8956	-6376.609
-9173	-6283.0776
-12032	-6186.642
-12437	-6108.7383
-11574	-6070.1143
-9066	-6088.177
-9181	-6171.4956
-12102	-6317.7236
-12420	-6513.2354
-11671	-6733.291
-9262	-6947.6055
-9160	-7124.279
-12847	-7235.711
-13960	-7264.884
-12350	-7207.0693
-9197	-7072.4
-9111	-6882.132
-12107	-6666.0137
-12486	-6456.8135
-11459	-6282.9985
-9009	-6165.367
-9291	-6112.758
-11994	-6122.163
-12337	-6180.7886
-11416	-6268.524
-9030	-6364.1064
-9280	-6448.4277
-11965	-6508.8203
-12359	-6540.79
-11456	-6546.541
-9097	-6534.4443
-9442	-6514.592
-12312	-6496.3403
-16141	-6485.0938
-11889	-6482.671
-9032	-6485.8096
-9169	-6488.194
-12016	-6483.352
-12350	-6467.5356
-11412	-6440.2144
-9050	-6405.855
-9334	-6371.785
-11990	-6346.8354
-12342	-6338.5605
-11563	-6349.288
-9054	-6376.2866
-9342	-6410.32
-12061	-6438.331
-12349	-6446.749
-11397	-6424.154
-9016	-6366.553
-9261	-6278.447
-11900	-6173.884
-12277	-6074.89
-11496	-6006.4116
-9032	-5992.627
-9232	-6050.064
-11779	-6184.0547
-12157	-6386.6025
-11367	-6635.4106
-8964	-6898.768
-8927	-7139.4883
-12290	-7321.7554
-13415	-7418.4277
-12174	-7415.31
-9316	-7312.8037
-9446	-7127.4917
-11931	-6888.447
-12404	-6631.4824
-11415	-6391.8867
-9093	-6199.8564
-9433	-6074.4707
-12167	-6021.998
-12547	-6036.324
-11763	-6100.229
-9076	-6191.407
-9176	-6285.967
-12016	-6363.8086
-12417	-6412.3276
-11647	-6426.631
-9115	-6410.7646
-9029	-6374.247
-11984	-6329.6855
-12435	-6289.88
-11647	-6263.6655
-9137	-6255.9805
-9232	-6266.0835
-12056	-6289.1265
-12308	-6318.3755
-11407	-6345.7485
-8934	-6365.5547
-9002	-6374.317
-11491	-6371.825
-11561	-6360.947
-11493	-6344.972
-8902	-6328.4644
-9199	-6314.254
-12089	-6303.7695
-12346	-6297.192
-11504	-6292.6006
-9060	-6288.68
-9216	-6284.2373
-12096	-6279.798
-12434	-6278.2983
-11614	-6283.318
-9201	-6299.995
-9166	-6332.3364
-12101	-6382.6196
-12392	-6450.703
-11525	-6532.1016
-9104	-6619.915
-9086	-6703.9976
-12506	-6773.1436
-13890	-6817.0576
-12446	-6827.7407
-9250	-6800.3467
-9234	-6735.0947
-11930	-6637.425
-12214	-6517.284
-11696	-6386.8506
-9239	-6261.0903
-9226	-6154.4326
-12064	-6079.8433
-12403	-6047.615
-11507	-6062.7666
-9002	-6126.0938
-9147	-6232.137
-11915	-6370.5684
-12459	-6527.4155
-11719	-6685.2183
-9226	-6826.619
-9410	-6935.102
-12115	-6997.9336
-12411	-7008.0835
-11517	-6964.145
-9006	-6872.3735
-9120	-6744.581
-11941	-6597.387
-12323	-6449.994
-11453	-6320.1675
-8971	-6223.207
-9224	-6168.0117
-11786	-6156.7085
-12302	-6184.516
-11682	-6239.6514
-9076	-6307.1094
-9219	-6370.0396
-12008	-6413.674
-12252	-6428.2812
-11424	-6409.689
-9082	-6361.413
-9259	-6292.583
-11905	-6216.7754
-12337	-6149.4814
-11441	-6103.9683
-8934	-6090.2847
-9171	-6112.076
-11894	-6166.9116
-12126	-6247.1797
-11373	-6340.446
-9072	-6433.4307
-9222	-6513.7056
-12649	-6571.4204
-13338	-6602.2637
-12316	-6606.3457
-9298	-6587.8174
-9254	-6554.268
-12692	-6514.3706
-12371	-6476.463
-11737	-6445.2153
-9216	-6423.2515
-9470	-6409.5586
-12286	-6401.248
-12778	-6395.053
-12047	-6387.3647
-9569	-6376.984
-9618	-6364.1216
-12413	-6351.014
-12732	-6341.338
-11566	-6337.7915
-9221	-6342.2393
-9529	-6353.5933
-12240	-6368.3296
-12614	-6381.125
-11901	-6384.7974
-9409	-6373.5435
-9531	-6343.1963
-12296	-6293.342
-12671	-6228.3643
-12123	-6155.7295
-9615	-6086.4897
-9392	-6031.88
-12476	-6001.596
-13053	-6002.301
-12149	-6034.6743
-9481	-6094.5435
-9626	-6172.1025
-12646	-6254.4995
-13153	-6328.7056
-12180	-6382.9087
-9689	-6410.4604
-9777	-6410.0005
-12391	-6386.606
-12855	-6350.8667
-12157	-6315.61
-9298	-6294.819
-9399	-6299.019
-12189	-6333.927
-12518	-6399.3164
-11869	-6487.4395
-9531	-6586.2017
-9260	-6679.978
-12817	-6753.033
-13806	-6793.432
-12172	-6793.7524
-9107	-6753.6567
-9285	-6678.9854
-12264	-6581.192
-12791	-6475.2554
-12100	-6375.5947
-9602	-6295.309
-9788	-6242.6226
-12466	-6220.7227
-12867	-6227.8306
-11978	-6257.062
-9343	-6299.642
-9454	-6345.3677
-12031	-6385.4155
-12538	-6413.7227
-11887	-6426.5625
-9603	-6424.0234
-9612	-6408.0234
-12381	-6382.0835
-12612	-6350.6562
-11975	-6317.3677
-9536	-6284.408
-9870	-6254.405
-12666	-6228.9775
-12877	-6209.809
-12109	-6197.561
-9234	-6193.7754
-9643	-6198.8145
-12704	-6212.56
-13027	-6234.1616
-12293	-6260.3677
-9536	-6287.33
-9794	-6309.315
-12333	-6320.91
-12651	-6318.0864
-12584	-6298.11
-9770	-6262.565
-9939	-6215.683
-12347	-6165.157
-12572	-6121.0117
-11109	-6092.9473
-9537	-6089.393
-9337	-6115.153
-11919	-6170.579
-12132	-6251.513
-11093	-6348.765
-9282	-6450.8306
-9401	-6545.0327
-13188	-6620.065
-14197	-6668.91
-13906	-6688.245
-9882	-6680.9717
-9787	-6653.368
-12647	-6614.843
-12572	-6576.0005
-12837	-6544.9043
-10160	-6527.7476
-10120	-6526.0625
-13696	-6537.3994
-14369	-6556.928
-13106	-6577.615
-10212	-6593.311
-10088	-6598.848
-12902	-6592.097
-13115	-6574.543
-13731	-6549.0493
-10605	-6521.647
-10791	-6497.5967
-14292	-6481.421
-15406	-6476.3438
-12098	-6483.1626
-7956	-6500.8794
-9295	-6525.7925
-13400	-6554.2856
-13726	-6584.039
-12563	-6612.936
-9613	-6641.105
-10551	-6668.7197
-14099	-6696.6963
-13072	-6726.4517
-12952	-6756.626
-9696	-6785.7627
-10112	-6809.466
-12977	-6823.192
-13326	-6823.026
-13139	-6805.464
-9542	-6770.8086
-9053	-6721.328
-11358	-6662.394
-12572	-6601.6294
-12217	-6546.7646
-10090	-6505.595
-7712	-6483.694
-7895	-6483.3574
-12888	-6502.0386
-13253	-6534.6113
-10007	-6574.776
-9982	-6614.5815
-12967	-6647.182
-11534	-6669.0137
-14179	-6676.842
-11042	-6672.332
-10400	-6658.5474
-13919	-6639.501
-14079	-6619.639
-13028	-6601.1133
-10527	-6584.9976
-10141	-6569.861
-12892	-6553.2974
-13491	-6533.322
-12642	-6508.199
-9535	-6479.096
-9771	-6448.538
-12941	-6421.226
-12929	-6403.434
-12140	-6399.907
-9667	-6414.2124
-9689	-6446.108
-12438	-6492.0137
-12951	-6545.544
-12369	-6597.558
-9419	-6639.8086
-9344	-6665.184
-12209	-6670.4463
-13284	-6657.3496
-12601	-6631.495
-9622	-6602.7183
-9356	-6581.271
-11742	-6576.242
-12431	-6593.0107
-11753	-6630.655
-9199	-6682.7544
-9347	-6736.7427
-12072	-6777.303
-12884	-6789.4614
-14112	-6760.5786
-16041	-6685.0884
-10331	-6568.0747
-12541	-6421.3687
-13088	-6265.076
-12547	-6122.7915
-10110	-6019.017
-9918	-5973.37
-12622	-5997.578
-13028	-6093.3438
-12872	-6250.4585
-10375	-6450.38
-9108	-6667.9385
-12349	-6875.8174
-18030	-7049.2124
-15866	-7171.4585
-10921	-7236.044
-9673	-7246.101
-12528	-7214.2905
-13282	-7160.2686
-12979	-7105.0205
-10032	-7069.276
-9954	-7067.233
-12976	-7105.439
-13419	-7182.1274
-12663	-7286.719
-9927	-7403.7656
-9934	-7514.442
-12977	-7600.8955
-13471	-7649.6426
-12777	-7652.22
-10107	-7607.903
-9982	-7521.9775
-12931	-7405.1694
-13594	-7272.0913
-13211	-7137.8906
-10534	-7017.947
-10024	-6924.5503
-13451	-6866.2974
-14266	-6848.047
-13369	-6869.2334
-10459	-6925.4517
-10156	-7007.0356
-13141	-7100.587
-14061	-7190.347
-13807	-7258.0366
-10195	-7286.876
-10097	-7261.633
-12945	-7172.338
-13701	-7016.53
-13155	-6799.511
-10167	-6536.6704
-10024	-6250.767
-13166	-5970.43
-13743	-5727.0093
-12980	-5548.957
-10129	-5459.1367
-9937	-5469.677
-12794	-5581.03
-13196	-5781.936
-12982	-6049.7944
-9936	-6356.374
-10450	-6669.972
-14136	-6961.33
-17329	-7207.608
-15452	-7394.5273
-11051	-7517.465
-10024	-7579.1807
-13081	-7587.8555
-13854	-7554.419
-13162	-7488.491
-10139	-7398.3105
-10200	-7288.4175
-13337	-7161.6665
-13576	-7021.3843
-13294	-6871.826
-10593	-6721.6694
-10159	-6582.593
-13095	-6468.6685
-13969	-6393.9624
-13329	-6367.8623
-10386	-6393.1553
-10302	-6462.048
-13249	-6556.8784
-13936	-6652.753
-13164	-6720.7344
-10150	-6735.7646
-10380	-6681.024
-13430	-6554.4424
-13745	-6371.3374
-13140	-6161.9844
-10141	-5968.8916
-10116	-5837.0176
-13272	-5805.7666
-13842	-5900.105
-13092	-6122.729
-10159	-6453.361
-10132	-6849.0796
-13328	-7252.435
-14075	-7601.898
-13180	-7842.73
-10216	-7939.384
-10029	-7881.146
-12952	-7686.2974
-13738	-7398.8716
-13234	-7079.49
-10197	-6795.0684
-10094	-6604.4067
-13026	-6546.883
-13717	-6635.9277
-12550	-6855.2285
-11083	-7163.383
-10779	-7502.0713
-14022	-7807.5034
-17560	-8023.5356
-15614	-8112.3057
-11126	-8061.363
-9984	-7883.115
-12901	-7612.7334
-13555	-7299.5596
-12996	-6995.356
-10144	-6746.229
-9709	-6581.9326
-14801	-6512.621
-14151	-6530.827
-13137	-6612.301
-10085	-6725.8203
-10002	-6839.5386
-13064	-6928.8726
-13782	-6981.5034
-13192	-6997.223
-10323	-6988.012
-10104	-6970.8975
-12962	-6964.27
-13062	-6982.243
-14099	-7028.98
-10659	-7100.5293
-10139	-7184.8535
-13006	-7265.957
-13727	-7328.1445
-13251	-7359.5815
-10273	-7357.3945
-10028	-7326.137
-13249	-7276.9746
-13551	-7224.2314
-12746	-7179.586
-10036	-7151.07
-10369	-7137.795
-13555	-7132.3193
-13874	-7122.656
-13126	-7095.2188
-10129	-7041.5073
-10200	-6959.8066
-13387	-6859.1235
-13910	-6758.4575
-13144	-6682.32
-10190	-6656.822
-10106	-6702.1895
-13212	-6827.7188
-14030	-7029.4146
-13417	-7288.144
-10778	-7571.025
-10771	-7838.06
-14391	-8049.9424
-16008	-8175.3037
-14641	-8195.621
-10777	-8111.2886
-9975	-7937.1143
-12969	-7702.651
-13354	-7446.138
-13092	-7205.0405
-10162	-7011.9907
-10262	-6887.3374
-13242	-6837.544
-13854	-6856.063
-13337	-6924.744
-10398	-7020.5312
-10260	-7119.0835
-13354	-7200.6963
-13894	-7253.463
-13247	-7272.9087
-10266	-7263.169
-10193	-7232.394
-13221	-7190.6597
-16187	-7146.9116
-14055	-7107.4023
-10285	-7075.1826
-10147	-7049.4126
-13262	-7028.343
-14059	-7011.077
-13502	-6997.582
-10409	-6990.6313
-10222	-6993.424
-13306	-7009.0195
-14041	-7038.579
-13576	-7078.554
-11523	-7121.5947
-10707	-7156.5312
-13433	-7170.967
-13954	-7155.0635
-13529	-7103.543
-10604	-7020.2915
-10312	-6917.373
-13330	-6813.2544
-14082	-6734.6494
-13621	-6706.109
-10486	-6747.5244
-10469	-6867.518
-13704	-7061.521
-14487	-7311.747
-14139	-7587.931
-11252	-7854.163
-10849	-8073.195
-14726	-8213.954
-16097	-8258.35
-14822	-8203.084
-10880	-8059.477
-10019	-7852.3784
-12872	-7614.949
-13604	-7382.2324
-13016	-7183.4185
-10209	-7038.926
-10040	-6956.088
-12940	-6930.5356
-13919	-6948.72
-13579	-6990.8994
-10528	-7038.0244
-10413	-7074.0767
-13391	-7090.1377
-13980	-7085.4453
-13619	-7064.795
-10585	-7037.9507
-10265	-7014.3745
-13752	-7001.054
-14312	-7001.19
-13673	-7011.9507
-10561	-7027.574
-10306	-7039.6685
-13412	-7041.0747
-14161	-7028.7607
-13646	-7003.1875
-10512	-6970.43
-10417	-6938.7744
-13556	-6917.2837
-14347	-6913.355
-14267	-6928.8486
-10817	-6961.2993
-10342	-7002.099
-13459	-7040.223
-14288	-7064.9707
-13851	-7068.0786
-10646	-7048.2573
-10459	-7010.493
-13586	-6966.9155
-14244	-6934.653
-13744	-6930.5825
-10672	-6969.27
-11278	-7057.102
-13819	-7191.5527
-14333	-7360.419
-13949	-7542.1904
-10881	-7711.7583
-10729	-7842.7373
-14610	-7913.807
-16310	-7912.687
-14971	-7837.8765
-11113	-7699.086
-10166	-7515.4062
-13324	-7311.9214
-14113	-7115.631
-13648	-6949.38
-10406	-6830.6533
-10199	-6767.6963
-13321	-6760.5576
-14039	-6802.455
-13587	-6880.652
-10544	-6981.496
-10284	-7090.593
-13243	-7196.048
-13901	-7289.689
-13539	-7365.444
-10506	-7420.738
-10476	-7453.8696
-13418	-7464.693
-13961	-7454.421
-13616	-7424.439
-10570	-7378.7607
-10254	-7322.675
-13404	-7263.845
-14203	-7211.8506
-13595	-7175.598
-10496	-7163.458
-10210	-7179.262
-13132	-7221.9907
-14332	-7285.158
-13799	-7356.262
-10536	-7420.6274
-10225	-7462.458
-13197	-7469.569
-14132	-7436.748
-13821	-7366.525
-10502	-7271.716
-10440	-7171.894
-13487	-7091.205
-14149	-7053.887
-13972	-7077.743
-11004	-7171.791
-10570	-7331.664
-13513	-7540.4067
-14337	-7770.677
-14066	-7987.793
-10833	-8157.51
-10674	-8250.583
-14435	-8248.197
-16007	-8146.904
-14914	-7958.1587
-10787	-7706.6562
-10309	-7426.033
-13752	-7153.4536
-14355	-6923.663
-13652	-6761.662
-10646	-6681.2017
-10532	-6681.6924
-13514	-6750.601
-14141	-6867.3027
-13696	-7004.923
-10585	-7139.177
-10502	-7249.5215
-13712	-7323.445
-14504	-7357.718
-13953	-7356.1685
-10865	-7329.434
-10604	-7290.0063
-13511	-7250.3574
-14290	-7220.607
-13919	-7205.6406
-10673	-7207.344
-10465	-7222.294
-13617	-7245.874
-14460	-7273.6265
-14460	-7301.043
-10915	-7326.628
-10383	-7349.566
-13544	-7370.364
-14402	-7390.193
-13881	-7408.284
-10669	-7423.6704
-10424	-7433.2134
-13552	-7433.568
-14429	-7422.664
-13863	-7399.7993
-10561	-7368.732
-10339	-7335.7773
-13512	-7310.496
-14502	-7304.1865
-14175	-7326.301
-10691	-7384.0967
-10509	-7478.2627
-13812	-7603.048
-14523	-7746.6133
-14239	-7890.8296
-11197	-8016.045
-10890	-8102.5967
-14549	-8135.1294
-15986	-8106.0303
-15539	-8015.5967
-11326	-7873.9277
-10616	-7697.6206
-13969	-7507.911
-14516	-7327.4883
-14102	-7174.8604
-11021	-7063.8726
-10919	-6999.6553
-13891	-6980.006
-14504	-6996.6035
-14146	-7035.961
-10894	-7084.5405
-10657	-7129.387
-13721	-7161.734
-14532	-7178.215
-14325	-7179.2227
-11014	-7170.0166
-10839	-7156.597
-13981	-7145.052
-14547	-7140.101
-14115	-7142.7944
-11004	-7151.4165
-10852	-7162.2144
-13851	-7170.9634
-14654	-7174.446
-14154	-7170.459
-10577	-7160.4766
-10660	-7147.188
-13952	-7135.1655
-14618	-7129.5957
-14310	-7133.217
-11114	-7147.441
-10726	-7170.057
-13856	-7196.4473
-14725	-7221.797
-14312	-7240.8047
-10955	-7251.494
-10663	-7254.171
-13796	-7253.2646
-14956	-7256.731
-14277	-7273.256
-10879	-7311.6924
-10812	-7376.73
-14517	-7468.373
-14575	-7581.464
-14088	-7703.8833
-11142	-7820.5825
-10591	-7914.253
-14407	-7969.396
-15946	-7976.07
-15014	-7930.436
-10939	-7837.575
-10531	-7709.1216
-13812	-7562.49
-14737	-7417.917
-14239	-7293.4604
-10939	-7203.825
-10684	-7156.2227
-13839	-7150.6426
-14830	-7180.6714
-14409	-7234.0522
-10835	-7297.208
-10260	-7356.2007
-13678	-7400.5156
-14401	-7425.0986
-13672	-7429.2427
-10368	-7417.8706
-10246	-7397.7583
-13487	-7376.914
-14391	-7362.726
-14164	-7358.6265
-11046	-7365.851
-10901	-7381.4214
-14016	-7400.4805
-14521	-7417.954
-14322	-7428.3145
-11164	-7429.068
-10958	-7419.1377
-13924	-7400.206
-14621	-7375.9097
-14345	-7349.408
-11109	-7324.491
-10709	-7302.5806
-13762	-7284.2236
-14601	-7269.3926
-14375	-7256.7637
-10820	-7246.9863
-10471	-7241.2104
-13900	-7242.891
-14511	-7257.7534
-14108	-7291.062
-10952	-7348.3916
-10819	-7431.874
-13654	-7540.393
-14203	-7668.415
-14329	-7805.221
-11307	-7938.0034
-10555	-8051.716
-14331	-8132.407
-14313	-8170.6606
-15332	-8160.563
-11877	-8104.0654
-10510	-8008.8916
-13689	-7887.74
-14577	-7756.9165
-14107	-7631.926
-10894	-7527.1694
-10669	-7451.919
-13680	-7410.607
-14478	-7402.6807
-14172	-7421.9097
-10637	-7460.1396
-10441	-7506.8223
-13624	-7552.362
-14582	-7589.64
-14274	-7613.4507
-10846	-7622.7764
-10530	-7618.174
-13669	-7602.4736
-14457	-7579.974
-13884	-7554.2505
-10712	-7529.4746
-10596	-7508.0225
-13507	-7491.934
-14588	-7482.941
-14197	-7481.2817
-10639	-7487.74
-10356	-7501.4688
-13508	-7521.2246
-14284	-7545.434
-14064	-7570.7524
-10799	-7594.19
-10500	-7611.81
-13749	-7620.6963
-14519	-7619.825
-13794	-7609.2573
-11065	-7592.056
-10698	-7572.529
-13796	-7556.732
-14567	-7551.305
-14189	-7560.8022
-10779	-7588.5874
-10621	-7633.626
-13746	-7691.8604
-14262	-7756.889
-14157	-7819.337
-11206	-7870.7227
-10035	-7903.2827
-14067	-7912.165
-18081	-7896.5034
-16601	-7859.5684
-11707	-7808.387
-10398	-7750.8135
-13704	-7694.864
-14557	-7647.0874
-14267	-7609.5215
-10926	-7581.694
-10646	-7558.8525
-13734	-7534.57
-14664	-7502.754
-14186	-7458.2397
-10831	-7400.449
-10565	-7332.0273
-13597	-7260.189
-14629	-7195.4834
-14509	-7148.425
-10933	-7129.3843
-10437	-7144.082
-13591	-7193.387
-14601	-7272.9526
-14515	-7372.451
-10951	-7479.41
-10403	-7579.338
-13865	-7659.728
-14829	-7712.593
-14398	-7734.25
-10953	-7727.732
-10613	-7699.4844
-13687	-7659.321
-14557	-7617.9604
-14276	-7583.1694
-10839	-7560.2256
-10513	-7549.092
-13722	-7546.1865
-14756	-7545.85
-14559	-7540.931
-10922	-7527.0737
-10489	-7502.1914
-13666	-7468.732
-14591	-7433.529
-14317	-7404.972
-10861	-7393.0483
-10469	-7404.784
-13584	-7443.7812
-14353	-7508.825
-14226	-7592.201
-10151	-7683.3403
-10422	-7767.9146
-14580	-7832.343
-18551	-7866.1646
-16835	-7864.052
-11868	-7827.294
-10342	-7761.8154
-13613	-7678.19
-14683	-7589.5166
-14436	-7507.1353
-10789	-7440.954
-10566	-7395.429
-13462	-7370.891
-17078	-7363.3906
-14714	-7367.034
-10737	-7375.698
-10503	-7383.292
-13781	-7386.6724
-14760	-7385.897
-14444	-7382.3486
-10862	-7379.6543
-10464	-7379.874
-13651	-7383.8745
-14600	-7390.6167
-14333	-7395.8325
-10719	-7395.3433
-10598	-7384.146
-13869	-7359.8296
-14764	-7323.9326
-14577	-7280.968
-10789	-7240.033
-10197	-7210.6855
-13416	-7202.19
-14437	-7220.724
-14132	-7266.0723
-10519	-7332.934
-10341	-7409.049
-13748	-7478.9854
-14891	-7527.5806
-14237	-7542.2896
-10653	-7518.4688
-10460	-7459.3613
-13566	-7377.981
-14476	-7295.129
-14382	-7234.1943
-10728	-7218.46
-10283	-7263.926
-13544	-7376.669
-14587	-7550.7056
-13882	-7766.76
-11932	-7997.2188
-11085	-8209.454
-14821	-8371.984
-18726	-8460.735
-16774	-8463.348
-11720	-8381.712
-10360	-8230.036
-13407	-8033.012
-14389	-7820.948
-14152	-7622.633
-10456	-7462.388
-10120	-7354.085
-14537	-7300.833
-14764	-7296.7734
-14212	-7327.523
-10705	-7376.5366
-10348	-7427.1777
-13439	-7467.615
-14376	-7492.665
-14105	-7502.1533
-10585	-7501.734
-10271	-7498.0605
-13455	-7497.3203
-14065	-7503.203
-14966	-7514.008
-11046	-7526.239
-10346	-7533.338
-13283	-7529.7954
-14339	-7513.4375
-14258	-7485.469
-10619	-7452.964
-10219	-7424.755
-13482	-7410.576
-14442	-7418.0264
-14232	-7448.424
-10686	-7497.5273
-10364	-7553.399
-13740	-7600.298
-14623	-7622.5156
-14449	-7607.122
-10648	-7550.215
-10304	-7456.8145
-13574	-7342.881
-14554	-7232.92
-14409	-7153.753
-10671	-7131.3965
-10302	-7182.6357
-13670	-7312.1724
-14782	-7510.739
-14910	-7754.6255
-11337	-8011.9146
-10719	-8245.819
-14588	-8423.026
-15993	-8520.752
-15657	-8528.785
-10831	-8454.277
-9844	-8315.847
-12813	-8141.8945
-13737	-7964.566
-13679	-7811.1343
-10357	-7701.281
-10270	-7641.814
-13442	-7628.0693
-14713	-7646.256
-14466	-7676.751
-10746	-7701.302
-10426	-7705.286
-13514	-7682.604
-14504	-7636.1396
-14387	-7574.849
-10641	-7512.676
-10312	-7461.9673
-13866	-7431.4014
-15231	-7423.608
-14671	-7433.4937
-10637	-7451.8145
-10314	-7466.085
-13567	-7465.8154
-14501	-7445.95
-14393	-7407.198
-10554	-7358.106
-10117	-7310.461
-13511	-7277.4097
-14694	-7269.368
-14672	-7289.158
-11087	-7332.7065
-10399	-7387.157
-13559	-7435.3286
-14635	-7460.306
-14381	-7449.053
-10550	-7398.9854
-10107	-7318.0386
-13332	-7225.4805
-14505	-7149.081
-14387	-7117.9316
-10634	-7158.0317
-10294	-7283.389
-13494	-7493.309
-14644	-7770.7466
-14870	-8082.843
-11337	-8388.676
-10641	-8643.976
-14201	-8810.474
-15270	-8864.003
-15653	-8796.663
-11110	-8620.029
-10000	-8361.674
-13284	-8060.457
-14522	-7759.2603
-14265	-7495.589
-10647	-7297.7153
-10240	-7178.5435
-13381	-7136.46
-14319	-7157.5864
-14179	-7218.8193
-10525	-7295.6772
-10137	-7365.3755
-13399	-7412.438
-14346	-7430.6206
-14183	-7421.225
-10516	-7392.996
-10036	-7356.4517
-13439	-7322.134
-14249	-7298.0186
-14108	-7286.376
-10538	-7286.3525
-10119	-7292.951
-13339	-7300.95
-14542	-7306.8906
-14362	-7308.8535
-10607	-7309.1514
-10191	-7311.0317
-13432	-7318.6494
-14778	-7335.0586
-15091	-7359.328
-10951	-7388.519
-10219	-7415.542
-13458	-7432.7207
-14685	-7434.2754
-14581	-7417.2603
-10663	-7385.518
-10189	-7347.398
-13506	-7316.3174
-14740	-7307.8755
-14754	-7334.795
-11071	-7405.521
-10627	-7519.009
-13607	-7665.252
-14777	-7825.9883
-15201	-7976.065
-11712	-8090.4004
-10915	-8146.24
-14424	-8129.581
-15530	-8037.9795
-15625	-7880.3506
-11267	-7677.043
-10252	-7455.5996
-13531	-7246.4727
-14664	-7077.8203
-14790	-6968.9854
-10779	-6930.1846
-10311	-6958.894
-13441	-7043.039
-14636	-7163.651
-14586	-7298.1274
-10594	-7425.1304
-10191	-7528.0273
-13465	-7597.215
-14737	-7630.7334
-14792	-7631.9717
-10949	-7609.9873
-10472	-7574.321
-13567	-7534.45
-14609	-7497.914
-14593	-7468.0933
-10786	-7446.8374
-10201	-7432.8423
-13401	-7424.656
-14638	-7421.455
-14540	-7422.3545
-10669	-7428.5996
-10357	-7440.217
-13646	-7457.131
-15094	-7477.9956
-14938	-7498.524
-10700	-7514.066
-10199	-7518.014
-13519	-7505.271
-14717	-7473.7817
-14559	-7424.4917
-10663	-7364.1997
-10206	-7302.7783
-13547	-7253.225
-14857	-7229.162
-14683	-7240.8394
-10847	-7294.7695
-10161	-7389.38
-13365	-7516.3315
-14752	-7661.2134
-14984	-7804.3203
-11114	-7926.1436
-10746	-8008.562
-14765	-8038.5767
-16043	-8012.0835
-15806	-7932.399
-11034	-7810.921
-10085	-7664.2695
-13511	-7512.0273
-14801	-7373.324
-14589	-7262.26
-10682	-7188.1577
-10184	-7152.221
-13501	-7149.812
-14737	-7171.9824
-14734	-7205.7188
-10922	-7239.8203
-10322	-7264.051
-13331	-7272.419
-14742	-7263.6978
-14791	-7239.949
-10909	-7207.688
-10297	-7173.8403
-13462	-7145.9116
-14695	-7130.4717
-14672	-7130.779
-10657	-7149.071
-10176	-7183.2456
-13409	-7230.21
-14632	-7286.02
-14832	-7345.1914
-11215	-7403.5747
-10321	-7456.371
-13821	-7499.8545
-14958	-7531.6855
-14718	-7549.375
-10744	-7552.7856
-10262	-7541.7954
-13547	-7518.433
-14829	-7486.946
-14789	-7452.3374
-10789	-7422.53
-10221	-7404.902
-13552	-7407.18
-14984	-7435.9155
-15092	-7493.8125
-10877	-7581.1826
-10238	-7692.5117
-13489	-7818.6577
-14947	-7947.4575
-15091	-8063.943
-11609	-8154.6577
-10772	-8207.373
-14344	-8214.446
-15829	-8174.451
-15923	-8090.665
-11330	-7973.3447
-10377	-7835.3525
-13573	-7692.3906
-14925	-7560.105
-14922	-7450.5947
-10846	-7373.1187
-10394	-7330.476
-13588	-7320.9746
-15064	-7338.9346
-15227	-7374.957
-11007	-7419.854
-10406	-7463.6865
-13528	-7499.068
-14824	-7521.6973
-15123	-7529.2456
-11191	-7523.466
-10626	-7506.715
-13755	-7483.104
-14984	-7457.3354
-14995	-7432.625
-10936	-7412.743
-10396	-7399.3975
-13651	-7394.1357
-14877	-7398.0796
-14899	-7410.6465
-10634	-7431.967
-10409	-7459.705
-13776	-7491.1606
-14896	-7522.887
-15068	-7549.283
-11124	-7565.774
-10518	-7566.965
-13835	-7549.621
-15147	-7513.7627
-15201	-7461.9126
-11106	-7401.708
-10462	-7342.7993
-13688	-7297.4526
-15140	-7278.3125
-15252	-7294.764
-11279	-7353.052
-10621	-7451.997
-13684	-7584.24
-14627	-7736.4775
-14727	-7889.7344
-11276	-8024.4517
-10802	-8121.294
-14308	-8166.0845
-15317	-8152.554
-15568	-8081.591
-11267	-7964.15
-10523	-7816.222
-13789	-7658.604
-15088	-7512.871
-15019	-7396.2524
-10871	-7321.214
-10121	-7291.291
-13259	-7302.6777
-14524	-7345.315
-14348	-7404.086
-10573	-7463.9917
-10094	-7510.7617
-13427	-7535.098
-14771	-7533.9688
-14937	-7509.184
-10964	-7468.8506
-10403	-7422.5854
-13652	-7381.0713
-14952	-7353.6377
-15075	-7345.0205
-10966	-7357.2295
-10373	-7386.8394
-13582	-7427.925
-14271	-7473.6157
-16475	-7515.467
-11514	-7548.897
-10229	-7570.0547
-13625	-7578.074
-15112	-7574.6943
-15285	-7562.0054
-11196	-7543.851
-10483	-7522.307
-13617	-7499.604
-14992	-7477.6846
-15137	-7457.275
-12733	-7440.4355
-16671	-7428.2954
-14156	-7426.5776
-14908	-7439.769
-15061	-7471.6304
-11057	-7525.9814
-10472	-7602.684
-13685	-7698.6997
-14666	-7807.5176
-14700	-7918.164
-11106	-8018.769
-10616	-8095.8677
-14057	-8138.5674
-13586	-8141.1235
-15415	-8101.012
-11908	-8023.874
-10370	-7919.548
-13374	-7802.2104
-14842	-7687.9673
-15035	-7590.668
-10891	-7522.082
-10217	-7487.291
-13406	-7486.3003
-14790	-7513.995
-14917	-7560.3037
-10748	-7614.597
-10231	-7665.1973
-13524	-7703.4453
-14792	-7724.621
-14859	-7726.9688
-10922	-7713.529
-10286	-7688.3916
-13418	-7657.2573
-14764	-7625.6104
-14755	-7596.5264
-10842	-7572.509
-10214	-7553.157
-13349	-7537.8936
-14976	-7526.494
-14932	-7518.73
-10702	-7516.8335
-10202	-7522.6294
-13472	-7538.864
-14823	-7567.7305
-14790	-7608.5083
-10884	-7658.966
-10282	-7712.892
-13543	-7762.769
-14994	-7800.675
-14954	-7818.879
-11036	-7813.935
-10504	-7785.504
-13865	-7738.7793
-15176	-7683.635
-15124	-7631.646
-11177	-7595.9165
-10586	-7585.9976
-13615	-7607.3843
-14700	-7659.824
-14889	-7735.542
-11134	-7822.705
-9681	-7905.306
-14087	-7967.3706
-18677	-7995.9077
-17379	-7983.395
-11777	-7930.0693
-10310	-7841.3022
-13587	-7728.458
-15043	-7606.14
-15190	-7487.827
-10966	-7385.8887
-10398	-7307.085
-13519	-7254.007
-14876	-7225.294
-14836	-7215.8643
-11033	-7221.152
-10537	-7236.4663
-13751	-7260.1377
-15124	-7293.359
-15323	-7337.9893
-11239	-7397.062
-10448	-7470.28
-13607	-7554.373
-15160	-7642.1616
-15403	-7721.9517
-11341	-7781.8857
-10314	-7810.28
-13612	-7800.803
-15342	-7754.8145
-15382	-7681.597
-11149	-7599.963
-10496	-7532.8594
-13587	-7505.119
-15159	-7538.092
-15348	-7643.0083
-11184	-7819.874
-10489	-8053.2754
-13560	-8315.826
-14925	-8571.782
-15254	-8781.82
-11026	-8912.522
-10572	-8939.91
-13681	-8856.363
-14952	-8671.932
-15072	-8411.457
-11032	-8112.4844
-10597	-7815.948
-13736	-7561.0356
-14727	-7377.8926
-15124	-7281.284
-10917	-7271.3687
-11082	-7331.978
-14793	-7436.9526
-17408	-7555.6973
-16474	-7658.6606
-11712	-7724.4517
-10170	-7741.145
-13591	-7709.215
-15180	-7639.845
-15262	-7549.919
-11066	-7459.6855
-10564	-7385.5513
-13527	-7338.833
-15929	-7323.0806
-15413	-7334.05
-11177	-7363.0713
-10447	-7397.7827
-13472	-7427.623
-14944	-7445.706
-15106	-7449.057
-11096	-7440.688
-10491	-7425.408
-13488	-7409.852
-15031	-7399.605
-15021	-7396.411
-10531	-7399.859
-10357	-7405.0586
-13661	-7406.875
-14905	-7401.506
-15213	-7386.9194
-10948	-7366.5615
-10084	-7346.2373
-13266	-7334.882
-14834	-7341.4565
-14997	-7371.1187
-10867	-7425.3257
-10322	-7497.8345
-13374	-7577.515
-14942	-7650.007
-14883	-7699.889
-10597	-7716.8477
-9993	-7696.2305
-13297	-7643.2354
-14891	-7572.381
-14924	-7503.982
-10669	-7462.282
-10060	-7467.655
-13214	-7533.7847
-14951	-7663.4053
-14567	-7845.6396
-12040	-8058.6885
-10924	-8271.861
-14886	-8451.821
-17887	-8569.09
-17085	-8603.014
-11639	-8547.423
-9987	-8409.097
-13155	-8208.667
-14736	-7976.3545
-14966	-7745.1035
-10796	-7546.854
-10142	-7404.546
-13702	-7330.5615
-15027	-7325.436
-15038	-7377.524
-10698	-7468.6304
-10090	-7575.8135
-13243	-7677.9043
-14725	-7759.002
-14967	-7809.3525
-10835	-7828.2314
-9987	-7820.0015
-13214	-7793.7837
-15049	-7760.2476
-15486	-7727.837
-11197	-7703.506
-10379	-7689.148
-13306	-7684.318
-14901	-7686.805
-15016	-7692.808
-10737	-7700.904
-10165	-7708.4165
-13273	-7715.3154
-14866	-7722.2246
-15109	-7728.093
-10917	-7732.008
-10226	-7730.2676
-13313	-7719.1504
-14510	-7695.695
-14477	-7657.8535
-10386	-7608.2373
-9934	-7552.4106
-12932	-7500.8237
-14689	-7464.9727
-15054	-7458.7554
-10766	-7493.629
-10201	-7573.9126
-13413	-7697.284
-15089	-7853.69
-15438	-8025.134
-10978	-8190.8965
-10237	-8328.199
-14217	-8418.132
-15459	-8449.566
-16221	-8419.037
-11202	-8335.365
-10031	-8212.88
-13141	-8071.771
-14699	-7933.999
-15153	-7817.329
-10864	-7734.632
-10092	-7689.333
-13102	-7677.763
-14739	-7690.2837
-15082	-7712.9844
-10850	-7733.429
-10012	-7740.7905
-13127	-7730.035
-14769	-7701.856
-14890	-7660.659
-10632	-7614.9116
-10066	-7571.8833
-13126	-7537.662
-15057	-7515.1636
-15206	-7502.81
-10680	-7497.573
-9987	-7493.7793
-13129	-7487.2285
-14775	-7476.316
-14899	-7461.6226
-10637	-7447.609
-10018	-7438.6855
-13097	-7439.3945
-14647	-7451.781
-15170	-7472.7695
-11221	-7496.4316
-10243	-7512.5117
-13092	-7510.713
-14669	-7483.3306
-14746	-7427.158
-10636	-7347.7124
-10133	-7257.1807
-13171	-7175.154
-14669	-7124.8394
-14735	-7127.38
-10626	-7199.2886
-10131	-7345.598
-13112	-7559.585
-14835	-7822.0195
-15044	-8102.507
-11219	-8366.283
-10736	-8577.392
-13951	-8706.792
-15053	-8737.744
-15728	-8666.535
-10979	-8505.069
-9817	-8277.51
-12765	-8016.9395
-14564	-7758.8594
-14852	-7534.0483
-10816	-7366.0615
-9944	-7265.613
-12900	-7232.0903
-14666	-7254.4897
-14799	-7313.9463
-10609	-7390.2
-9971	-7463.35
-12992	-7519.331
-14724	-7551.3896
-15072	-7559.067
-11001	-7549.161
-10210	-7530.392
-13284	-7512.7573
-14903	-7504.4526
-15049	-7508.921
-10687	-7526.5347
-10021	-7552.333
-13051	-7579.755
-14788	-7601.9126
-15058	-7612.0356
-10746	-7606.968
-10060	-7585.0728
-13139	-7548.2827
-15049	-7500.5693
-15736	-7445.9624
-11016	-7390.0005
-10090	-7335.9917
-13111	-7287.2656
-14763	-7246.731
-15055	-7216.188
-10754	-7199.068
-10049	-7197.6587
-13088	-7215.412
-14846	-7255.417
-15096	-7318.619
-10860	-7404.9873
-10269	-7510.034
-13166	-7626.9536
-14935	-7746.251
-15672	-7855.845
-11606	-7945.2183
-10738	-8004.0137
-14211	-8026.044
-15224	-8009.8745
-16385	-7957.5938
-11400	-7877.137
-10062	-7778.47
-13306	-7673.4365
-15055	-7573.903
-15383	-7488.412
-10810	-7423.758
-10007	-7381.6416
-13072	-7361.255
-14946	-7359.2715
-15052	-7370.2617
-10739	-7389.2188
-10031	-7410.6533
-13023	-7430.894
-14779	-7447.666
-14863	-7459.016
-10474	-7465.1016
-10148	-7465.051
-13142	-7459.3066
-14875	-7448.7637
-15123	-7433.9575
-10852	-7417.278
-10068	-7400.424
-13035	-7386.6284
-14837	-7379.201
-15076	-7380.209
-10707	-7391.964
-10181	-7413.309
-13271	-7441.829
-15381	-7473.103
-15431	-7500.441
-10705	-7518.0557
-9917	-7519.611
-13053	-7501.979
-14851	-7465.7173
-15092	-7414.5244
-10763	-7357.0483
-10069	-7303.1655
-13044	-7264.486
-14806	-7251.54
-15147	-7270.6626
-10868	-7324.6963
-9947	-7409.5396
-12975	-7516.429
-14937	-7632.469
-15391	-7741.6875
-11526	-7829.4
-10851	-7882.6475
-14056	-7893.153
-15587	-7859.497
-16329	-7785.0903
-11144	-7680.102
-11108	-7557.0854
-22952	-7429.4297
-16672	-7315.1357
-15081	-7225.2256
-10719	-7168.224
-9954	-7146.5083
-13067	-7158.423
-14964	-7198.3955
-15095	-7257.058
-10686	-7325.1626
-9985	-7392.172
-13093	-7449.914
-15084	-7492.6953
-15277	-7516.904
-10897	-7523.136
-10048	-7513.075
-13052	-7491.1616
-14852	-7463.3037
-15105	-7434.8896
-10814	-7412.2124
-9924	-7399.1133
-12943	-7398.7666
-15021	-7412.5513
-15453	-7439.001
-11204	-7475.8716
-10111	-7517.8984
-13429	-7559.306
-15084	-7594.1484
-15027	-7616.079
-10744	-7621.278
-10050	-7606.6895
-13026	-7572.971
-14832	-7524.02
-15141	-7465.852
-10697	-7408.2783
-9914	-7360.9546
-13091	-7334.2534
-15146	-7337.0425
-15413	-7374.4355
-10715	-7448.6035
-9996	-7555.141
-13121	-7685.728
-15148	-7827.9536
-15662	-7965.8955
-11774	-8084.1904
-10747	-8167.8135
-13953	-8206.263
-15069	-8195.011
-16332	-8134.223
-11416	-8032.689
-10164	-7902.4473
-13207	-7759.9316
-15222	-7622.418
-15339	-7504.2866
-10956	-7416.8276
-10236	-7363.843
-13342	-7343.7183
-15311	-7349.354
-15458	-7369.1426
-10827	-7391.4937
-9869	-7404.836
-12455	-7402.4263
-16167	-7382.4575
-15069	-7348.8555
-10557	-7310.6733
-9882	-7278.017
-12949	-7261.4995
-14842	-7268.721
-15279	-7301.3545
-11100	-7356.23
-10306	-7423.4536
-13248	-7490.5503
-15211	-7544.4814
-15062	-7574.02
-12124	-7573.9277
-10491	-7545.0444
-13393	-7495.336
-15006	-7437.913
-15183	-7386.929
-10920	-7356.0444
-10191	-7352.1675
-13246	-7375.497
-15239	-7418.465
-15447	-7466.32
-10919	-7502.5503
-10086	-7510.804
-13371	-7481.8794
-15652	-7416.772
-15676	-7327.691
-11292	-7238.867
-10461	-7180.3853
-13257	-7184.523
-14879	-7278.1465
-15345	-7475.1904
-11369	-7773.958
-10602	-8152.8154
-13911	-8573.771
-15051	-8987.503
-16157	-9339.246
-11190	-9581.187
-10242	-9676.869
-13171	-9610.755
-15047	-9390.202
-15091	-9043.573
-10784	-8617.3
-10180	-8165.66
-13311	-7743.877
-15092	-7398.6807
-15222	-7160.307
-10902	-7040.6187
-9899	-7030.6055
-12990	-7105.8228
-14900	-7231.9014
-15271	-7370.9976
-10962	-7491.0117
-10038	-7568.528
-13177	-7594.023
-15103	-7571.4556
-15064	-7514.6436
-10788	-7444.643
-10181	-7381.8535
-13144	-7343.512
-14407	-7339.3633
-16071	-7368.617
-11334	-7423.835
-9953	-7489.9775
-12876	-7550.3574
-14797	-7589.9478
-14998	-7597.821
-10755	-7571.143
-10087	-7512.965
-12998	-7433.973
-14913	-7349.095
-15114	-7273.824
-10487	-7223.3525
-10362	-7207.218
-13301	-7230.7227
-15172	-7293.293
-15348	-7388.3057
-11002	-7506.328
-10251	-7634.2354
-13263	-7759.365
-15042	-7870.3286
-15222	-7957.454
-11197	-8015.391
-10479	-8040.9043
-14006	-8034.9985
-14032	-8002.647
-16102	-7948.9907
-12067	-7883.094
-10232	-7812.624
-13332	-7745.5137
-15352	-7688.32
-15522	-7644.201
-10972	-7614.628
-10103	-7596.6587
-13129	-7585.9565
-15130	-7576.923
-15544	-7563.201
-10907	-7541.173
-9919	-7508.512
-13062	-7467.0684
-15221	-7422.1475
-15456	-7380.918
-10895	-7352.81
-10070	-7344.9824
-13055	-7362.891
-15131	-7407.777
-15385	-7475.5356
-11085	-7558.8027
-10153	-7645.6997
-12976	-7724.106
-15409	-7783.0327
-15630	-7814.317
-11156	-7815.753
-10357	-7789.1094
-13102	-7741.9863
-15180	-7685.164
-15507	-7629.892
-10867	-7587.335
-9989	-7564.0796
-13121	-7563.205
-15239	-7583.239
-15394	-7618.184
-11238	-7660.9604
-10301	-7702.9365
-13221	-7738.0083
-15247	-7762.985
-15409	-7777.413
-11034	-7784.9043
-10323	-7789.331
-13172	-7795.6367
-14847	-7807.4575
-15367	-7824.868
-11227	-7846.1445
-9106	-7865.948
-14532	-7877.257
-17251	-7874.3086
-16917	-7852.5347
-11863	-7811.762
-10022	-7753.819
-13186	-7684.876
-15397	-7614.051
-15422	-7546.63
-11124	-7492.468
-10229	-7455.922
-13154	-7438.133
-15157	-7436.6846
-14986	-7445.7393
-10771	-7459.1646
-10187	-7469.9546
-13214	-7474.0337
-15287	-7470.3037
-15512	-7460.0737
-10986	-7448.264
-10156	-7439.52
-13267	-7438.8853
-15411	-7449.4736
-15527	-7470.698
-11060	-7499.8364
-9890	-7530.1724
-13218	-7554.3926
-15554	-7565.8477
-15524	-7559.501
-10976	-7534.8184
-10174	-7493.8506
-13302	-7443.1177
-15418	-7391.747
-15641	-7348.519
-11210	-7322.037
-10298	-7316.478
-13345	-7332.782
-15455	-7367.867
-15557	-7414.7974
-10836	-7466.2046
-9987	-7513.428
-13205	-7550.7607
-15336	-7575.895
-15472	-7589.4775
-11019	-7596.42
-10194	-7602.126
-13287	-7613.237
-15101	-7634.903
-15467	-7668.529
-10834	-7713.299
-10844	-7763.4272
-14701	-7811.775
-16379	-7851.1333
-16835	-7874.1646
-11812	-7877.868
-10009	-7860.556
-13214	-7824.934
-15324	-7776.631
-15464	-7721.9326
-10946	-7668.148
-10065	-7619.926
-13455	-7580.469
-15666	-7550.77
-15550	-7529.217
-11073	-7514.166
-10008	-7502.7075
-13201	-7493.725
-15407	-7487.6387
-15423	-7485.9473
-11067	-7491.0625
-10272	-7504.697
-13277	-7527.873
-15309	-7559.5635
-15237	-7595.782
-10686	-7631.819
-10184	-7660.6714
-13321	-7677.0474
-15326	-7677.976
-15442	-7663.0337
-10791	-7636.441
-9702	-7604.3086
-12771	-7574.43
-14969	-7554.993
-15032	-7551.0034
-10615	-7564.671
-9966	-7592.169
-13112	-7626.425
-15274	-7657.9136
-15141	-7676.3496
-10622	-7674.8745
-9811	-7650.033
-12775	-7605.408
-14906	-7550.7246
-15111	-7499.6055
-10719	-7468.63
-9989	-7471.6567
-12959	-7518.5874
-15241	-7611.771
-14724	-7744.401
-11941	-7901.889
-10676	-8062.852
-15033	-8203.501
-17226	-8302.413
-17626	-8342.767
-11817	-8318.358
-9769	-8230.853
-12618	-8092.5396
-14682	-7923.0625
-14700	-7745.2373
-10370	-7582.6934
-9547	-7453.7617
-12522	-7370.807
-14407	-7338.0396
-14594	-7350.8667
-10454	-7399.39
-9926	-7468.535
-12967	-7543.2793
-15150	-7610.566
-15219	-7660.517
-10629	-7689.2056
-9881	-7695.9736
-13002	-7684.816
-15166	-7662.2676
-15419	-7634.863
-10941	-7609.746
-10049	-7591.366
-12891	-7583.222
-14950	-7587.0444
-15095	-7602.3145
-10627	-7628.753
-9895	-7662.8477
-12976	-7701.3945
-15062	-7740.307
-15170	-7773.7983
-10877	-7796.5757
-10066	-7802.309
-13081	-7786.876
-15120	-7748.851
-15196	-7689.9165
-10713	-7617.117
-9808	-7540.22
-12793	-7472.998
-14943	-7429.917
-14983	-7423.374
-10670	-7462.455
-9887	-7548.443
-12877	-7675.8545
-15287	-7831.7993
-15771	-7997.0337
-11501	-8150.781
-10532	-8271.814
-13897	-8344.078
-15467	-8359.323
-16709	-8316.619
-11156	-8226.514
-9786	-8103.565
-12714	-7967.1323
-14809	-7837.1562
-15161	-7729.1353
-10770	-7653.6855
-9951	-7612.872
-12735	-7603.048
-14789	-7615.611
-14946	-7639.0303
-10510	-7663.4785
-9731	-7680.528
-12684	-7686.969
-14813	-7683.7417
-14987	-7674.0674
-10586	-7663.2344
-9667	-7654.2397
-12524	-7648.514
-15035	-7644.2114
-14921	-7636.442
-10374	-7620.205
-9674	-7590.108
-12655	-7544.684
-14706	-7486.848
-14816	-7423.279
-10509	-7364.5967
-9770	-7320.933
-12631	-7301.2197
-14807	-7309.4727
-14944	-7342.574
-10753	-7391.6025
-9915	-7441.2163
-12792	-7475.27
-14934	-7479.896
-15072	-7446.9434
-10572	-7378.7812
-9764	-7287.004
-12762	-7193.2793
-15092	-7125.002
-15282	-7109.2124
-10746	-7168.2085
-10039	-7311.645
-13174	-7535.2383
-15519	-7818.968
-15562	-8128.8125
-11113	-8423.401
-10357	-8658.338
-13646	-8796.058
-15340	-8812.918
-16881	-8700.48
-11328	-8471.488
-9709	-8154.393
-12731	-7790.6313
-15106	-7427.255
-15172	-7108.1816
-10774	-6869.059
-9867	-6730.2285
-12915	-6696.449
-15111	-6757.02
-15122	-6888.406
-10721	-7060.886
-9786	-7242.2295
-12677	-7404.9233
-15030	-7529.2295
-15228	-7604.728
-10806	-7631.807
-9897	-7617.4414
-12972	-7574.6064
-15073	-7518.1606
-15094	-7461.2334
-10626	-7414.8247
-9877	-7384.4834
-12944	-7372.564
-15212	-7378.257
-15254	-7397.7856
-10761	-7427.1924
-9946	-7460.959
-12811	-7494.6187
-15119	-7523.9077
